Sample ID:	C:\MCC\MCC Cal\Test\Ext_Plywood_MCC_30K_min_211006_R2.txt
Sample Weight (mg):	4.55
Heating Rate (C/s):	0.5
Combustor Temp (C):	900
N2 Flow Rate (cc/min):	80
O2 Flow Rate (cc/min):	20
Calibration File:	C:\MCC\MCC Cal\Coeff1 JN10440_30_210304.txt.txt
T Correction Coefficients:	0	1.024463	0
Time Shift (s):	14
*
Time (s)	Temperature (C)	N2 flow rate (cc/min)	O2 flow rate (cc/min)	Flow Rate (cc/min)	Oxygen (%)	HRR (W/g)	Heating rate (C/s)
0.000	108.794	79.997	19.996	100.738	20.056	0.119	-0.030
0.500	108.798	79.998	19.995	100.739	20.055	0.153	-0.033
1.000	108.767	79.999	19.995	100.739	20.051	0.474	-0.023
1.500	108.770	79.999	19.996	100.738	20.051	0.413	-0.027
2.000	108.748	79.999	19.994	100.738	20.053	0.273	-0.024
2.500	108.771	79.999	19.995	100.738	20.055	0.147	-0.009
3.000	108.772	80.000	19.995	100.738	20.054	0.250	0.012
3.500	108.785	80.000	19.995	100.739	20.053	0.302	0.019
4.000	108.787	79.997	19.994	100.739	20.057	0.045	0.015
4.500	108.797	80.000	19.995	100.740	20.053	0.323	0.014
5.000	108.777	80.000	19.996	100.739	20.055	0.174	0.001
5.501	108.766	80.000	19.996	100.739	20.054	0.230	-0.021
6.001	108.770	79.999	19.995	100.738	20.055	0.146	-0.018
6.500	108.756	79.999	19.995	100.739	20.054	0.200	-0.008
7.000	108.778	79.998	19.995	100.739	20.051	0.420	-0.001
7.500	108.774	79.999	19.995	100.741	20.051	0.463	0.013
8.000	108.754	79.997	19.995	100.746	20.051	0.450	-0.003
8.501	108.768	80.000	19.996	100.751	20.051	0.473	-0.015
9.001	108.757	79.999	19.996	100.757	20.051	0.420	-0.001
9.500	108.779	79.998	19.996	100.761	20.051	0.461	0.007
10.000	108.733	79.998	19.996	100.762	20.049	0.570	-0.007
10.501	108.705	80.001	19.995	100.763	20.051	0.454	-0.049
11.001	108.767	79.998	19.996	100.765	20.049	0.561	-0.020
11.501	108.736	79.999	19.996	100.767	20.049	0.598	0.033
12.001	108.753	79.999	19.996	100.770	20.048	0.622	0.008
12.501	108.729	79.999	19.995	100.775	20.045	0.822	-0.011
13.001	108.730	79.999	19.996	100.777	20.048	0.626	-0.015
13.500	108.762	79.999	19.996	100.776	20.050	0.512	0.005
14.000	108.788	80.000	19.996	100.777	20.046	0.821	0.045
14.500	108.759	79.999	19.996	100.777	20.043	0.976	0.028
15.000	108.747	79.997	19.996	100.781	20.043	1.025	-0.021
15.500	108.752	80.000	19.996	100.785	20.045	0.860	-0.024
16.000	108.784	79.999	19.996	100.788	20.042	1.056	0.015
16.500	108.751	79.999	19.996	100.789	20.041	1.126	0.018
17.000	108.782	79.998	19.995	100.795	20.040	1.202	-0.001
17.500	108.745	80.000	19.996	100.799	20.040	1.191	-0.004
18.000	108.792	80.000	19.996	100.801	20.039	1.296	0.002
18.500	108.822	79.999	19.997	100.807	20.039	1.298	0.044
19.000	108.849	80.002	19.997	100.815	20.042	1.085	0.067
19.500	108.880	79.999	19.996	100.825	20.035	1.518	0.057
20.000	108.896	79.998	19.997	100.832	20.037	1.380	0.052
20.500	108.892	80.001	19.996	100.841	20.036	1.483	0.029
21.000	108.927	80.000	19.996	100.848	20.035	1.524	0.022
21.500	108.865	80.003	19.996	100.852	20.035	1.524	0.002
22.000	108.947	80.002	19.995	100.853	20.033	1.685	-0.004
22.500	108.924	79.998	19.997	100.853	20.035	1.519	0.039
23.000	108.955	80.000	19.996	100.859	20.029	1.973	0.033
23.500	108.994	80.001	19.996	100.868	20.027	2.071	0.039
24.000	109.010	79.999	19.996	100.881	20.027	2.125	0.063
24.500	109.058	80.002	19.995	100.896	20.024	2.325	0.060
25.000	109.085	80.000	19.996	100.911	20.025	2.267	0.069
25.500	109.146	80.000	19.996	100.921	20.026	2.201	0.081
26.000	109.159	79.999	19.995	100.928	20.025	2.215	0.081
26.500	109.207	79.999	19.995	100.932	20.020	2.611	0.068
27.000	109.296	80.000	19.996	100.933	20.022	2.417	0.099
27.500	109.327	80.001	19.995	100.933	20.019	2.626	0.128
28.000	109.361	80.001	19.995	100.936	20.019	2.673	0.092
28.500	109.432	80.000	19.996	100.939	20.016	2.864	0.085
29.000	109.460	79.999	19.995	100.942	20.018	2.709	0.102
29.500	109.516	80.000	19.995	100.943	20.018	2.740	0.092
30.001	109.572	80.000	19.995	100.944	20.016	2.836	0.098
30.500	109.649	80.002	19.995	100.942	20.015	2.961	0.122
31.000	109.674	80.000	19.995	100.942	20.015	2.954	0.117
31.500	109.761	79.998	19.996	100.943	20.014	2.989	0.107
32.000	109.818	79.998	19.996	100.949	20.016	2.841	0.128
32.500	109.904	79.999	19.996	100.953	20.013	3.066	0.143
33.000	109.943	79.999	19.996	100.957	20.016	2.860	0.134
33.500	110.030	79.999	19.995	100.962	20.013	3.077	0.126
34.000	110.129	79.997	19.996	100.965	20.010	3.256	0.156
34.500	110.234	79.998	19.995	100.963	20.010	3.294	0.195
35.000	110.304	80.001	19.995	100.962	20.012	3.152	0.189
35.500	110.350	79.998	19.996	100.963	20.012	3.174	0.146
36.000	110.453	79.998	19.995	100.961	20.012	3.144	0.133
36.500	110.550	79.998	19.995	100.962	20.008	3.409	0.174
37.000	110.627	79.999	19.996	100.966	20.007	3.477	0.187
37.500	110.706	79.999	19.995	100.970	20.006	3.561	0.165
38.000	110.843	79.999	19.995	100.972	20.009	3.367	0.186
38.500	110.882	80.001	19.995	100.974	20.009	3.333	0.196
39.000	110.995	79.999	19.995	100.974	20.008	3.403	0.164
39.500	111.078	79.999	19.996	100.974	20.009	3.374	0.174
40.000	111.182	79.998	19.995	100.974	20.007	3.477	0.192
40.500	111.301	79.998	19.996	100.974	20.009	3.382	0.205
41.000	111.379	80.002	19.996	100.974	20.004	3.709	0.210
41.500	111.483	80.000	19.996	100.974	20.007	3.516	0.190
42.000	111.638	80.000	19.996	100.974	20.006	3.539	0.221
42.500	111.701	79.999	19.996	100.973	20.007	3.470	0.239
43.000	111.842	80.000	19.997	100.972	20.006	3.552	0.211
43.500	111.940	79.999	19.997	100.970	20.007	3.519	0.222
44.001	112.063	80.000	19.997	100.966	20.007	3.464	0.230
44.501	112.205	80.001	19.995	100.965	20.004	3.702	0.243
45.000	112.300	80.001	19.996	100.964	20.009	3.337	0.251
45.500	112.422	80.003	19.996	100.962	20.007	3.468	0.227
46.000	112.542	79.999	19.996	100.962	20.006	3.537	0.229
46.501	112.636	80.000	19.997	100.960	20.005	3.649	0.228
47.001	112.760	80.002	19.995	100.955	20.007	3.479	0.216
47.500	112.898	80.001	19.996	100.953	20.011	3.217	0.240
48.000	113.021	80.001	19.996	100.954	20.011	3.182	0.261
48.500	113.166	79.999	19.996	100.955	20.007	3.486	0.264
49.000	113.244	80.000	19.996	100.961	20.006	3.582	0.246
49.500	113.437	80.000	19.997	100.966	20.010	3.297	0.247
50.000	113.532	80.001	19.996	100.970	20.010	3.277	0.279
50.501	113.650	80.003	19.996	100.969	20.007	3.509	0.250
51.001	113.756	80.000	19.996	100.966	20.010	3.311	0.219
51.500	113.852	79.999	19.996	100.965	20.010	3.314	0.213
52.000	114.044	80.001	19.995	100.962	20.004	3.668	0.245
52.500	114.178	80.001	19.996	100.962	20.008	3.406	0.307
53.001	114.257	80.001	19.995	100.964	20.006	3.542	0.270
53.501	114.401	79.999	19.995	100.967	20.008	3.411	0.218
54.000	114.535	79.998	19.995	100.967	20.010	3.275	0.250
54.500	114.727	80.000	19.996	100.969	20.007	3.503	0.302
55.000	114.865	79.999	19.997	100.969	20.008	3.404	0.328
55.500	114.942	79.998	19.996	100.970	20.011	3.236	0.273
56.000	115.073	80.001	19.996	100.972	20.008	3.433	0.212
56.501	115.257	79.999	19.996	100.969	20.010	3.257	0.261
57.001	115.372	79.999	19.995	100.970	20.012	3.118	0.306
57.501	115.550	79.999	19.996	100.968	20.010	3.294	0.296
58.000	115.726	79.999	19.996	100.967	20.008	3.421	0.324
58.500	115.830	80.000	19.995	100.963	20.005	3.640	0.317
59.001	115.936	79.999	19.995	100.962	20.006	3.534	0.245
59.501	116.129	79.999	19.995	100.959	20.008	3.401	0.255
60.000	116.255	80.000	19.995	100.958	20.010	3.249	0.309
60.500	116.380	79.999	19.995	100.954	20.007	3.472	0.285
61.001	116.580	80.000	19.997	100.954	20.011	3.199	0.289
61.501	116.746	79.997	19.995	100.959	20.008	3.406	0.346
62.001	116.902	79.999	19.994	100.960	20.010	3.274	0.344
62.501	117.007	79.997	19.995	100.960	20.006	3.562	0.291
63.000	117.192	79.999	19.995	100.962	20.009	3.322	0.275
63.500	117.359	79.998	19.995	100.962	20.008	3.397	0.321
64.000	117.505	79.997	19.994	100.957	20.008	3.395	0.333
64.500	117.649	79.997	19.996	100.954	20.006	3.558	0.301
65.000	117.818	79.999	19.995	100.955	20.005	3.618	0.301
65.500	117.961	80.000	19.995	100.957	20.006	3.584	0.313
66.000	118.186	80.000	19.995	100.960	20.004	3.709	0.340
66.500	118.305	79.999	19.995	100.966	20.008	3.431	0.356
67.000	118.464	79.999	19.995	100.971	20.002	3.803	0.311
67.500	118.607	80.000	19.995	100.971	20.004	3.689	0.290
68.000	118.757	79.999	19.995	100.972	20.004	3.687	0.297
68.500	118.927	80.000	19.996	100.972	20.007	3.455	0.306
69.000	119.102	79.998	19.995	100.972	20.007	3.470	0.333
69.500	119.268	80.000	19.996	100.972	20.006	3.537	0.343
70.000	119.414	80.000	19.996	100.972	20.007	3.504	0.326
70.500	119.621	79.999	19.996	100.971	20.004	3.685	0.332
71.001	119.780	80.000	19.997	100.971	20.003	3.758	0.360
71.501	119.916	79.999	19.998	100.971	20.004	3.698	0.331
72.000	120.096	79.999	19.995	100.971	20.006	3.558	0.306
72.500	120.255	80.000	19.996	100.971	20.003	3.737	0.328
73.000	120.462	80.000	19.996	100.971	20.003	3.780	0.353
73.500	120.632	79.997	19.997	100.971	20.003	3.769	0.372
74.000	120.785	79.996	19.995	100.971	20.005	3.618	0.350
74.500	120.986	80.000	19.996	100.972	20.004	3.730	0.338
75.000	121.142	79.998	19.996	100.972	20.005	3.635	0.355
75.500	121.310	79.999	19.995	100.972	20.006	3.554	0.340
76.000	121.489	79.999	19.996	100.972	20.005	3.657	0.336
76.500	121.668	79.999	19.995	100.972	20.007	3.513	0.353
77.000	121.883	80.001	19.996	100.971	20.005	3.597	0.376
77.501	122.019	79.998	19.995	100.972	20.008	3.431	0.372
78.001	122.218	79.997	19.995	100.971	20.003	3.766	0.343
78.501	122.365	80.000	19.995	100.971	20.006	3.577	0.341
79.000	122.514	79.999	19.996	100.971	20.006	3.560	0.321
79.500	122.751	80.000	19.996	100.972	20.005	3.603	0.341
80.000	122.936	79.999	19.996	100.972	20.006	3.565	0.403
80.501	123.090	80.000	19.995	100.972	20.003	3.756	0.381
81.001	123.294	79.998	19.996	100.972	20.005	3.653	0.349
81.500	123.454	80.000	19.995	100.972	20.005	3.605	0.361
82.000	123.674	79.999	19.996	100.972	20.004	3.672	0.372
82.501	123.818	80.000	19.996	100.971	20.004	3.708	0.372
83.001	124.029	79.999	19.996	100.971	20.006	3.536	0.360
83.500	124.236	79.998	19.996	100.971	20.004	3.700	0.387
84.000	124.398	79.999	19.995	100.972	20.004	3.713	0.394
84.500	124.568	79.998	19.996	100.971	20.005	3.659	0.350
85.001	124.791	79.999	19.995	100.971	20.003	3.786	0.362
85.501	124.960	79.999	19.995	100.971	20.002	3.837	0.393
86.000	125.145	80.000	19.997	100.971	20.004	3.713	0.373
86.501	125.373	80.000	19.995	100.972	20.004	3.721	0.384
87.001	125.500	79.999	19.996	100.972	20.003	3.766	0.384
87.500	125.694	79.998	19.995	100.973	20.002	3.839	0.338
88.000	125.905	79.999	19.995	100.973	20.000	3.949	0.363
88.500	126.091	79.998	19.994	100.974	19.999	4.063	0.401
89.000	126.292	79.999	19.996	100.973	20.002	3.845	0.392
89.500	126.501	79.997	19.996	100.973	20.005	3.656	0.398
90.000	126.672	79.999	19.996	100.973	20.002	3.865	0.395
90.500	126.872	79.998	19.995	100.973	20.005	3.637	0.376
91.000	127.057	79.998	19.995	100.973	20.000	3.985	0.378
91.500	127.241	79.999	19.995	100.974	19.999	4.069	0.377
92.000	127.436	79.999	19.995	100.974	19.996	4.263	0.374
92.500	127.651	79.998	19.996	100.974	20.002	3.820	0.395
93.000	127.825	79.999	19.996	100.974	19.997	4.190	0.400
93.500	128.066	79.999	19.996	100.975	20.002	3.820	0.402
94.000	128.248	80.000	19.995	100.975	20.001	3.893	0.419
94.500	128.453	80.001	19.996	100.976	19.997	4.164	0.405
95.000	128.651	79.999	19.995	100.976	20.001	3.878	0.395
95.501	128.831	80.000	19.996	100.975	20.003	3.751	0.390
96.001	129.047	79.999	19.995	100.977	20.000	3.955	0.388
96.500	129.297	80.000	19.996	100.977	20.000	3.963	0.431
97.000	129.446	80.001	19.996	100.978	19.998	4.114	0.432
97.500	129.652	79.998	19.995	100.979	20.001	3.918	0.377
98.000	129.836	79.999	19.996	100.980	20.000	4.004	0.373
98.501	130.076	79.999	19.994	100.980	20.000	3.957	0.408
99.001	130.265	80.001	19.995	100.981	20.002	3.828	0.426
99.500	130.474	80.000	19.996	100.981	20.001	3.878	0.413
100.000	130.682	80.000	19.996	100.983	19.999	4.050	0.407
100.500	130.904	80.001	19.995	100.982	20.000	3.957	0.424
101.000	131.105	79.999	19.995	100.982	20.000	3.996	0.427
101.500	131.265	80.000	19.994	100.981	20.002	3.816	0.392
102.000	131.502	79.999	19.995	100.980	20.003	3.775	0.379
102.500	131.712	80.000	19.995	100.979	19.998	4.078	0.422
103.000	131.924	80.002	19.996	100.979	20.001	3.873	0.434
103.501	132.139	80.001	19.995	100.979	20.000	3.992	0.424
104.001	132.333	80.000	19.995	100.979	19.999	4.020	0.418
104.501	132.591	80.001	19.996	100.979	20.001	3.871	0.431
105.000	132.751	80.001	19.995	100.981	19.999	4.020	0.436
105.500	132.959	80.001	19.996	100.982	19.999	4.039	0.393
106.000	133.137	80.001	19.996	100.984	20.002	3.837	0.376
106.500	133.373	80.000	19.996	100.987	20.001	3.929	0.400
107.001	133.588	80.000	19.996	100.989	20.003	3.796	0.433
107.501	133.817	80.000	19.996	100.990	20.000	3.940	0.447
108.000	134.041	79.999	19.995	100.989	20.002	3.811	0.449
108.500	134.271	80.002	19.997	100.986	19.999	4.028	0.454
109.000	134.505	80.001	19.996	100.982	19.998	4.133	0.459
109.500	134.695	80.000	19.995	100.981	19.999	4.045	0.444
110.000	134.960	79.999	19.995	100.979	19.999	4.056	0.439
110.501	135.148	79.999	19.996	100.979	20.002	3.822	0.454
111.001	135.337	80.000	19.996	100.981	20.002	3.852	0.415
111.500	135.564	79.999	19.996	100.984	20.000	4.005	0.397
112.000	135.779	80.000	19.996	100.984	19.999	4.024	0.429
112.500	135.992	80.000	19.997	100.983	20.002	3.858	0.435
113.000	136.216	80.000	19.998	100.984	20.000	3.955	0.432
113.500	136.443	80.000	19.996	100.981	20.000	3.979	0.444
114.000	136.645	79.998	19.995	100.981	20.002	3.839	0.440
114.500	136.906	79.998	19.996	100.980	19.997	4.187	0.446
115.000	137.136	79.999	19.996	100.981	19.998	4.140	0.477
115.500	137.333	79.998	19.996	100.980	19.998	4.129	0.459
116.000	137.578	79.999	19.996	100.981	19.997	4.209	0.434
116.500	137.859	79.997	19.996	100.980	19.995	4.310	0.484
117.000	138.047	80.001	19.997	100.981	19.995	4.322	0.498
117.500	138.214	80.000	19.997	100.982	19.999	4.043	0.412
118.000	138.475	79.999	19.995	100.982	19.999	4.063	0.391
118.500	138.699	79.999	19.996	100.981	19.995	4.293	0.456
119.001	138.906	79.997	19.996	100.981	19.997	4.202	0.458
119.501	139.171	80.003	19.996	100.981	19.997	4.153	0.451
120.000	139.366	79.999	19.996	100.982	19.993	4.458	0.466
120.500	139.585	79.999	19.996	100.982	19.992	4.503	0.437
121.000	139.845	80.000	19.995	100.981	19.996	4.237	0.447
121.500	140.072	80.000	19.996	100.982	19.996	4.284	0.483
122.000	140.309	80.001	19.995	100.983	19.998	4.080	0.476
122.500	140.519	80.000	19.995	100.981	19.999	4.069	0.456
123.000	140.759	80.001	19.995	100.983	19.997	4.148	0.449
123.500	140.958	80.001	19.996	100.985	19.998	4.127	0.445
124.000	141.196	80.000	19.997	100.983	19.995	4.291	0.438
124.500	141.474	80.002	19.996	100.985	19.995	4.321	0.476
125.000	141.680	80.001	19.996	100.983	19.995	4.299	0.500
125.501	141.877	80.002	19.997	100.979	19.995	4.342	0.444
126.001	142.088	80.004	19.995	100.982	19.995	4.349	0.406
126.500	142.314	80.002	19.997	100.983	19.995	4.318	0.422
127.000	142.575	80.002	19.996	100.979	19.991	4.596	0.462
127.500	142.811	80.001	19.996	100.982	19.992	4.516	0.492
128.000	143.049	80.002	19.995	100.984	19.995	4.344	0.486
128.500	143.281	80.003	19.995	100.983	19.994	4.417	0.472
129.000	143.514	80.000	19.996	100.981	19.993	4.475	0.467
129.500	143.732	80.001	19.996	100.982	19.994	4.421	0.458
130.000	143.973	80.001	19.996	100.980	19.994	4.392	0.455
130.500	144.234	80.002	19.996	100.978	19.996	4.263	0.481
131.000	144.466	80.001	19.995	100.975	19.993	4.437	0.498
131.500	144.688	80.002	19.997	100.976	19.996	4.228	0.473
132.000	144.918	80.001	19.995	100.978	19.994	4.387	0.453
132.500	145.166	80.002	19.995	100.981	19.992	4.521	0.465
133.000	145.429	80.001	19.995	100.984	19.994	4.390	0.495
133.500	145.635	80.000	19.996	100.987	19.993	4.430	0.490
134.000	145.866	80.001	19.994	100.985	19.991	4.594	0.453
134.500	146.117	80.001	19.997	100.981	19.993	4.447	0.460
135.000	146.352	80.000	19.996	100.977	19.993	4.432	0.484
135.500	146.564	80.001	19.996	100.974	19.998	4.113	0.466
136.000	146.787	80.000	19.996	100.971	19.994	4.409	0.441
136.500	147.072	80.001	19.996	100.974	19.994	4.370	0.471
137.000	147.287	80.000	19.998	100.977	19.995	4.338	0.504
137.500	147.519	80.000	19.998	100.977	19.996	4.274	0.473
138.000	147.733	80.001	19.997	100.978	19.996	4.261	0.446
138.500	148.003	79.999	19.998	100.978	19.991	4.628	0.465
139.000	148.236	79.999	19.998	100.977	19.993	4.475	0.494
139.500	148.498	79.998	19.997	100.976	19.994	4.372	0.499
140.000	148.742	79.998	19.997	100.976	19.995	4.314	0.500
140.500	148.965	80.000	19.998	100.979	19.991	4.577	0.487
141.000	149.214	79.998	19.998	100.977	19.993	4.424	0.470
141.500	149.458	79.999	19.997	100.976	19.993	4.484	0.482
142.000	149.728	79.998	19.997	100.975	19.990	4.637	0.503
142.500	150.002	79.998	19.996	100.975	19.992	4.495	0.528
143.000	150.217	79.999	19.998	100.973	19.991	4.615	0.516
143.500	150.432	79.998	19.996	100.975	19.994	4.388	0.460
144.000	150.704	79.998	19.996	100.975	19.996	4.241	0.459
144.500	150.940	79.998	19.998	100.976	19.993	4.480	0.498
145.000	151.142	79.998	19.996	100.975	19.997	4.207	0.473
145.500	151.366	79.998	19.996	100.975	19.992	4.512	0.432
146.000	151.694	79.999	19.997	100.973	19.995	4.353	0.489
146.500	151.924	79.999	19.997	100.973	19.992	4.495	0.555
147.000	152.161	79.998	19.995	100.972	19.989	4.738	0.513
147.500	152.412	79.999	19.997	100.974	19.995	4.295	0.477
148.000	152.675	79.998	19.996	100.974	19.992	4.512	0.501
148.500	152.895	79.999	19.996	100.975	19.994	4.418	0.498
149.000	153.130	79.998	19.996	100.975	19.995	4.317	0.469
149.500	153.376	79.998	19.997	100.975	19.991	4.592	0.468
150.000	153.640	79.998	19.997	100.973	19.992	4.553	0.496
150.500	153.896	79.999	19.996	100.973	19.990	4.660	0.515
151.000	154.130	79.998	19.997	100.973	19.993	4.439	0.505
151.500	154.344	79.998	19.996	100.973	19.991	4.621	0.468
152.000	154.599	79.998	19.996	100.973	19.991	4.592	0.458
152.500	154.827	80.000	19.996	100.973	19.988	4.791	0.476
153.000	155.059	79.998	19.996	100.972	19.988	4.806	0.472
153.500	155.287	79.999	19.995	100.972	19.990	4.692	0.460
154.000	155.526	79.999	19.996	100.972	19.989	4.710	0.463
154.500	155.765	80.000	19.997	100.972	19.991	4.624	0.472
155.000	156.041	80.000	19.995	100.972	19.991	4.626	0.497
155.500	156.294	79.999	19.996	100.973	19.991	4.611	0.522
156.000	156.520	79.998	19.996	100.973	19.991	4.576	0.504
156.500	156.782	80.000	19.996	100.973	19.990	4.693	0.484
157.000	157.016	80.000	19.995	100.974	19.990	4.692	0.492
157.500	157.256	80.001	19.996	100.975	19.989	4.757	0.485
158.000	157.543	80.000	19.996	100.975	19.989	4.731	0.501
158.500	157.803	80.000	19.996	100.975	19.988	4.780	0.537
159.000	158.059	79.998	19.996	100.975	19.990	4.665	0.531
159.500	158.283	80.000	19.996	100.974	19.989	4.757	0.498
160.000	158.561	79.998	19.995	100.974	19.989	4.710	0.491
160.500	158.762	79.999	19.997	100.975	19.990	4.699	0.491
161.000	158.983	79.999	19.996	100.975	19.991	4.619	0.450
161.500	159.276	80.000	19.994	100.975	19.991	4.583	0.468
162.000	159.504	79.999	19.996	100.975	19.987	4.888	0.518
162.500	159.734	79.998	19.996	100.975	19.990	4.650	0.490
163.000	160.006	79.998	19.996	100.975	19.989	4.722	0.480
163.500	160.260	80.001	19.995	100.975	19.990	4.699	0.514
164.000	160.490	79.999	19.996	100.976	19.987	4.849	0.505
164.500	160.725	80.000	19.996	100.976	19.989	4.755	0.475
165.000	160.972	79.999	19.996	100.976	19.987	4.875	0.474
165.500	161.228	79.998	19.995	100.976	19.985	4.998	0.492
166.000	161.482	79.998	19.995	100.975	19.986	4.955	0.506
166.500	161.758	79.999	19.995	100.974	19.985	5.045	0.520
167.000	161.958	79.998	19.996	100.973	19.985	4.991	0.503
167.500	162.261	79.998	19.995	100.973	19.989	4.759	0.490
168.000	162.457	79.998	19.995	100.974	19.988	4.796	0.502
168.500	162.751	79.998	19.996	100.974	19.988	4.836	0.495
169.000	162.992	79.999	19.994	100.974	19.986	4.938	0.512
169.500	163.201	80.000	19.995	100.975	19.986	4.912	0.492
170.000	163.524	79.998	19.996	100.975	19.987	4.880	0.491
170.500	163.763	79.999	19.995	100.975	19.986	4.934	0.547
171.000	164.027	79.998	19.997	100.975	19.991	4.603	0.533
171.500	164.219	80.000	19.996	100.975	19.987	4.848	0.479
172.000	164.532	79.999	19.996	100.975	19.988	4.824	0.480
172.500	164.711	79.998	19.996	100.975	19.987	4.886	0.499
