Sample ID:	C:\MCC\MCC Cal\Test\Cotton_Felt\Cotton_Felt_MCC_30K_min_21_07_09_R3.txt
Sample Weight (mg):	4.15
Heating Rate (C/s):	1
Combustor Temp (C):	900
N2 Flow Rate (cc/min):	80
O2 Flow Rate (cc/min):	20
Calibration File:	C:\MCC\MCC Cal\Coeff1 JN10440_30_210304.txt.txt
T Correction Coefficients:	0	1.024463	0
Time Shift (s):	14
*
Time (s)	Temperature (C)	N2 flow rate (cc/min)	O2 flow rate (cc/min)	Flow Rate (cc/min)	Oxygen (%)	HRR (W/g)	Heating rate (C/s)
0.000	105.454	79.996	19.996	99.951	20.071	0.417	-0.034
0.500	105.445	79.997	19.996	99.951	20.068	0.644	-0.012
1.000	105.456	79.996	19.996	99.949	20.072	0.376	0.006
1.500	105.429	79.997	19.995	99.945	20.068	0.663	-0.007
2.000	105.411	79.997	19.996	99.948	20.069	0.556	-0.031
2.500	105.449	79.997	19.995	99.950	20.069	0.593	-0.013
3.000	105.428	79.997	19.996	99.957	20.070	0.510	0.019
3.500	105.402	79.997	19.994	99.964	20.067	0.707	-0.015
4.000	105.449	79.998	19.996	99.965	20.071	0.436	-0.013
4.500	105.453	79.998	19.995	99.961	20.070	0.473	0.036
5.000	105.421	79.998	19.997	99.956	20.071	0.457	0.012
5.500	105.434	79.997	19.996	99.952	20.074	0.182	-0.023
6.000	105.445	79.997	19.995	99.946	20.069	0.592	0.002
6.500	105.461	79.996	19.995	99.946	20.071	0.428	0.025
7.000	105.415	79.998	19.996	99.950	20.068	0.664	-0.001
7.500	105.451	79.998	19.996	99.954	20.069	0.615	-0.020
8.000	105.402	79.997	19.996	99.958	20.071	0.397	-0.012
8.500	105.404	79.998	19.996	99.966	20.069	0.575	-0.030
9.000	105.436	79.998	19.996	99.972	20.068	0.625	-0.007
9.500	105.397	79.998	19.995	99.974	20.067	0.760	0.014
10.001	105.410	79.997	19.996	99.974	20.066	0.776	-0.016
10.501	105.423	79.998	19.997	99.976	20.065	0.909	-0.000
11.000	105.420	79.998	19.996	99.979	20.066	0.811	0.018
11.500	105.417	79.998	19.997	99.982	20.064	0.944	0.002
12.000	105.382	79.997	19.996	99.990	20.061	1.217	-0.021
12.500	105.398	79.997	19.996	99.997	20.064	0.942	-0.029
13.000	105.412	79.997	19.996	100.006	20.060	1.265	0.005
13.501	105.441	79.997	19.997	100.020	20.059	1.370	0.036
14.001	105.448	79.997	19.995	100.036	20.059	1.315	0.040
14.500	105.429	79.996	19.996	100.052	20.055	1.662	0.012
15.000	105.442	79.996	19.996	100.068	20.051	1.961	-0.009
15.500	105.480	79.996	19.996	100.088	20.053	1.810	0.023
16.000	105.461	79.996	19.999	100.100	20.053	1.773	0.035
16.500	105.489	79.997	19.997	100.114	20.050	2.040	0.014
17.000	105.520	79.996	19.996	100.131	20.043	2.506	0.034
17.500	105.552	79.996	19.997	100.146	20.044	2.504	0.061
18.000	105.577	79.996	19.996	100.156	20.043	2.547	0.060
18.500	105.626	79.995	19.996	100.167	20.044	2.433	0.065
19.000	105.635	79.997	19.997	100.174	20.040	2.742	0.067
19.500	105.692	79.997	19.997	100.176	20.036	3.047	0.062
20.000	105.725	79.998	19.997	100.180	20.039	2.871	0.078
20.500	105.760	79.995	19.996	100.187	20.038	2.902	0.079
21.000	105.799	79.996	19.996	100.188	20.035	3.149	0.071
21.500	105.868	79.997	19.996	100.194	20.032	3.358	0.091
22.000	105.954	79.996	19.996	100.200	20.033	3.321	0.132
22.500	105.953	79.996	19.996	100.204	20.031	3.418	0.120
23.000	106.033	79.997	19.997	100.205	20.031	3.474	0.082
23.500	106.101	79.997	19.995	100.212	20.028	3.651	0.114
24.000	106.153	79.997	19.996	100.213	20.029	3.570	0.134
24.500	106.246	79.996	19.996	100.213	20.027	3.779	0.132
25.000	106.316	79.998	19.996	100.213	20.025	3.918	0.154
25.500	106.400	79.997	19.998	100.219	20.024	3.976	0.159
26.000	106.465	79.997	19.996	100.225	20.023	4.074	0.152
26.500	106.528	79.996	19.997	100.234	20.023	4.087	0.139
27.000	106.633	79.998	19.997	100.243	20.019	4.327	0.148
27.500	106.729	79.999	19.996	100.251	20.020	4.304	0.184
28.000	106.812	79.998	19.996	100.253	20.020	4.263	0.190
28.500	106.863	79.998	19.996	100.253	20.019	4.356	0.156
29.000	106.987	79.999	19.996	100.252	20.018	4.458	0.154
29.500	107.099	79.998	19.997	100.251	20.016	4.609	0.206
30.000	107.225	79.998	19.996	100.255	20.014	4.736	0.237
30.500	107.283	79.998	19.996	100.258	20.014	4.748	0.211
31.000	107.388	79.998	19.996	100.264	20.012	4.912	0.174
31.500	107.503	79.997	19.996	100.271	20.012	4.883	0.191
32.000	107.581	79.997	19.995	100.279	20.012	4.888	0.206
32.500	107.725	79.998	19.996	100.282	20.010	5.041	0.207
33.000	107.850	79.997	19.995	100.287	20.012	4.909	0.246
33.500	107.988	79.998	19.995	100.290	20.008	5.214	0.266
34.001	108.110	79.997	19.995	100.292	20.008	5.162	0.261
34.501	108.234	79.997	19.996	100.292	20.009	5.075	0.253
35.001	108.371	79.997	19.996	100.292	20.006	5.347	0.254
35.501	108.497	79.997	19.996	100.295	20.009	5.121	0.262
36.000	108.627	79.997	19.997	100.301	20.004	5.506	0.259
36.500	108.767	79.997	19.996	100.305	20.004	5.480	0.263
37.000	108.911	79.996	19.996	100.312	20.006	5.310	0.277
37.500	109.058	79.996	19.996	100.314	20.004	5.469	0.287
38.000	109.229	79.996	19.996	100.315	20.004	5.501	0.304
38.500	109.375	79.996	19.997	100.311	20.005	5.411	0.317
39.000	109.528	79.996	19.996	100.311	20.001	5.698	0.308
39.501	109.687	79.995	19.995	100.312	20.002	5.640	0.306
40.001	109.852	79.994	19.996	100.318	20.004	5.467	0.318
40.500	110.024	79.995	19.996	100.323	20.000	5.781	0.331
41.000	110.184	79.996	19.996	100.328	19.999	5.831	0.335
41.500	110.352	79.994	19.997	100.331	20.000	5.820	0.330
42.000	110.539	79.995	19.997	100.336	19.997	5.999	0.342
42.500	110.698	79.993	19.998	100.337	19.999	5.835	0.351
43.000	110.895	79.994	19.996	100.340	20.000	5.802	0.351
43.500	111.086	79.994	19.998	100.344	19.996	6.059	0.371
44.000	111.231	79.995	19.999	100.347	19.995	6.163	0.362
44.500	111.455	79.995	19.998	100.348	19.997	6.006	0.353
45.000	111.630	79.996	19.997	100.351	19.997	6.027	0.384
45.500	111.835	79.995	19.997	100.353	19.998	5.946	0.390
46.000	112.039	79.993	19.998	100.356	19.994	6.251	0.395
46.500	112.232	79.995	19.997	100.358	19.993	6.289	0.403
47.000	112.394	79.994	19.998	100.360	19.995	6.197	0.376
47.500	112.650	79.995	19.997	100.363	19.996	6.085	0.386
48.000	112.848	79.994	19.998	100.365	19.993	6.289	0.436
48.500	113.100	79.995	19.997	100.366	19.990	6.556	0.452
49.000	113.279	79.994	19.997	100.366	19.991	6.438	0.441
49.500	113.532	79.994	19.997	100.367	19.990	6.523	0.432
50.000	113.689	79.995	19.997	100.367	19.988	6.700	0.421
50.501	113.957	79.994	19.998	100.367	19.990	6.571	0.417
51.001	114.147	79.994	19.998	100.367	19.993	6.297	0.441
51.501	114.443	79.995	19.997	100.372	19.991	6.492	0.472
52.000	114.642	79.993	19.997	100.371	19.992	6.378	0.490
52.500	114.911	79.994	19.997	100.370	19.990	6.577	0.482
53.000	115.150	79.994	19.997	100.373	19.990	6.554	0.488
53.500	115.363	79.995	19.999	100.375	19.989	6.586	0.480
54.000	115.639	79.995	19.997	100.373	19.988	6.706	0.471
54.500	115.864	79.995	19.997	100.379	19.985	6.901	0.496
55.000	116.144	79.993	19.997	100.386	19.985	6.895	0.503
55.500	116.366	79.994	19.996	100.390	19.987	6.777	0.503
56.000	116.598	79.995	19.997	100.395	19.987	6.789	0.478
56.500	116.862	79.996	19.996	100.400	19.984	7.001	0.475
57.000	117.127	79.994	19.996	100.401	19.985	6.934	0.512
57.500	117.406	79.995	19.997	100.403	19.986	6.868	0.537
58.000	117.681	79.995	19.997	100.404	19.984	7.018	0.549
58.500	117.939	79.995	19.995	100.404	19.983	7.059	0.543
59.000	118.221	79.996	19.995	100.405	19.982	7.152	0.536
59.500	118.485	79.996	19.996	100.405	19.982	7.119	0.543
60.000	118.776	79.995	19.996	100.406	19.980	7.310	0.551
60.500	119.081	79.994	19.997	100.406	19.983	7.100	0.575
61.000	119.339	79.995	19.996	100.406	19.984	7.001	0.580
61.500	119.650	79.996	19.995	100.405	19.982	7.170	0.566
62.000	119.916	79.995	19.996	100.405	19.980	7.301	0.573
62.500	120.227	79.996	19.996	100.406	19.977	7.552	0.577
63.000	120.497	79.996	19.997	100.405	19.983	7.048	0.579
63.500	120.807	79.997	19.996	100.405	19.981	7.220	0.580
64.000	121.094	79.997	19.996	100.407	19.982	7.187	0.589
64.500	121.435	79.997	19.996	100.408	19.984	7.029	0.612
65.000	121.737	79.996	19.997	100.413	19.981	7.233	0.635
65.500	122.036	79.996	19.995	100.416	19.981	7.216	0.622
66.000	122.372	79.995	19.996	100.417	19.979	7.347	0.618
66.500	122.682	79.995	19.996	100.416	19.980	7.276	0.641
67.000	123.004	79.995	19.997	100.416	19.980	7.270	0.639
67.500	123.315	79.995	19.996	100.412	19.978	7.442	0.632
68.000	123.651	79.995	19.997	100.411	19.978	7.455	0.640
68.501	123.963	79.994	19.997	100.414	19.978	7.451	0.648
69.001	124.289	79.994	19.996	100.414	19.976	7.588	0.643
69.502	124.608	79.995	19.996	100.414	19.978	7.447	0.642
70.001	124.928	79.994	19.997	100.412	19.976	7.600	0.642
70.500	125.266	79.995	19.996	100.411	19.980	7.339	0.648
71.000	125.609	79.994	19.996	100.413	19.978	7.486	0.670
71.500	125.979	79.995	19.996	100.414	19.978	7.453	0.697
72.000	126.304	79.994	19.996	100.419	19.978	7.447	0.704
72.501	126.628	79.995	19.995	100.424	19.976	7.636	0.672
73.001	126.995	79.995	19.997	100.429	19.979	7.362	0.670
73.500	127.305	79.994	19.996	100.427	19.979	7.407	0.684
74.000	127.643	79.994	19.996	100.429	19.978	7.422	0.663
74.500	127.999	79.995	19.997	100.431	19.979	7.401	0.671
75.000	128.379	79.994	19.996	100.434	19.976	7.609	0.715
75.500	128.737	79.993	19.996	100.436	19.977	7.538	0.737
76.000	129.068	79.994	19.997	100.437	19.973	7.819	0.714
76.500	129.461	79.993	19.997	100.438	19.975	7.669	0.707
77.000	129.849	79.993	19.996	100.439	19.975	7.652	0.753
77.500	130.225	79.993	19.996	100.437	19.976	7.613	0.772
78.000	130.555	79.995	19.996	100.437	19.977	7.528	0.735
78.500	130.934	79.993	19.997	100.435	19.975	7.677	0.708
79.000	131.262	79.994	19.996	100.438	19.974	7.778	0.708
79.500	131.659	79.994	19.996	100.439	19.977	7.535	0.716
80.000	132.014	79.995	19.996	100.438	19.976	7.612	0.739
80.500	132.429	79.995	19.996	100.438	19.978	7.473	0.761
81.000	132.771	79.995	19.996	100.442	19.977	7.510	0.763
81.501	133.177	79.995	19.996	100.443	19.978	7.479	0.752
82.001	133.580	79.996	19.996	100.443	19.979	7.409	0.778
82.500	133.955	79.996	19.996	100.445	19.978	7.438	0.793
83.000	134.352	79.995	19.996	100.446	19.977	7.529	0.775
83.500	134.732	79.996	19.996	100.445	19.976	7.577	0.775
84.000	135.138	79.996	19.997	100.442	19.978	7.463	0.781
84.500	135.542	79.996	19.996	100.440	19.980	7.312	0.798
85.000	135.932	79.996	19.996	100.440	19.978	7.453	0.802
85.500	136.319	79.996	19.996	100.440	19.979	7.395	0.786
86.001	136.743	79.995	19.996	100.442	19.978	7.492	0.794
86.501	137.138	79.996	19.995	100.445	19.978	7.447	0.815
87.000	137.557	79.996	19.996	100.445	19.979	7.401	0.817
87.500	137.962	79.997	19.995	100.444	19.980	7.320	0.820
88.000	138.357	79.997	19.996	100.444	19.980	7.286	0.812
88.501	138.787	79.996	19.996	100.444	19.980	7.303	0.812
89.002	139.162	79.997	19.996	100.443	19.977	7.496	0.815
89.501	139.573	79.995	19.996	100.441	19.979	7.396	0.796
90.000	139.951	79.996	19.996	100.436	19.976	7.568	0.787
90.501	140.421	79.996	19.996	100.430	19.981	7.200	0.819
91.001	140.827	79.996	19.996	100.430	19.978	7.424	0.862
91.500	141.261	79.996	19.995	100.430	19.979	7.387	0.858
92.000	141.680	79.996	19.995	100.431	19.980	7.318	0.846
92.500	142.104	79.996	19.996	100.433	19.977	7.538	0.848
93.000	142.523	79.995	19.996	100.436	19.980	7.322	0.843
93.500	142.946	79.995	19.997	100.432	19.977	7.561	0.843
94.001	143.397	79.995	19.997	100.429	19.980	7.297	0.858
94.501	143.858	79.995	19.995	100.431	19.978	7.422	0.893
95.000	144.285	79.996	19.996	100.433	19.978	7.490	0.900
95.500	144.723	79.994	19.995	100.436	19.978	7.459	0.877
96.001	145.144	79.997	19.996	100.441	19.974	7.727	0.862
96.501	145.639	79.995	19.997	100.443	19.976	7.569	0.887
97.000	146.039	79.996	19.995	100.438	19.976	7.611	0.905
97.500	146.481	79.996	19.995	100.437	19.979	7.383	0.868
98.000	146.927	79.995	19.997	100.437	19.977	7.518	0.865
98.500	147.334	79.995	19.995	100.434	19.978	7.424	0.871
99.000	147.813	79.996	19.995	100.432	19.978	7.424	0.869
99.500	148.283	79.996	19.996	100.432	19.979	7.363	0.917
100.000	148.692	79.996	19.997	100.428	19.978	7.450	0.914
100.500	149.179	79.995	19.996	100.422	19.979	7.394	0.888
101.000	149.644	79.995	19.997	100.418	19.980	7.330	0.924
101.500	150.096	79.996	19.996	100.415	19.977	7.548	0.934
102.000	150.544	79.996	19.996	100.413	19.975	7.645	0.909
102.500	150.978	79.996	19.996	100.414	19.980	7.318	0.891
103.000	151.461	79.995	19.996	100.415	19.976	7.618	0.899
103.500	151.898	79.995	19.996	100.416	19.977	7.539	0.919
104.000	152.349	79.996	19.996	100.415	19.978	7.477	0.904
104.500	152.833	79.997	19.996	100.414	19.976	7.579	0.912
105.000	153.293	79.996	19.996	100.413	19.978	7.421	0.939
105.501	153.711	79.996	19.996	100.412	19.980	7.331	0.911
106.001	154.155	79.997	19.996	100.409	19.980	7.306	0.870
106.501	154.626	79.997	19.996	100.410	19.979	7.387	0.889
107.001	155.054	79.997	19.996	100.412	19.981	7.201	0.907
107.501	155.513	79.997	19.997	100.413	19.981	7.263	0.893
108.001	156.001	79.997	19.995	100.413	19.980	7.301	0.917
108.501	156.459	79.997	19.996	100.416	19.976	7.568	0.946
109.000	156.947	79.997	19.996	100.417	19.978	7.485	0.946
109.500	157.396	79.998	19.996	100.414	19.981	7.250	0.942
110.000	157.858	79.998	19.997	100.410	19.986	6.865	0.924
110.500	158.350	79.997	19.996	100.407	19.982	7.146	0.932
111.000	158.810	79.998	19.996	100.403	19.982	7.159	0.953
111.500	159.281	79.998	19.998	100.400	19.978	7.476	0.942
112.000	159.733	79.998	19.996	100.400	19.982	7.128	0.927
112.500	160.241	79.998	19.996	100.401	19.978	7.439	0.942
113.001	160.685	79.998	19.995	100.404	19.978	7.462	0.956
113.501	161.173	79.997	19.997	100.404	19.981	7.215	0.942
114.000	161.655	79.998	19.996	100.403	19.981	7.234	0.951
114.500	162.147	79.997	19.996	100.403	19.982	7.127	0.972
115.001	162.596	79.998	19.996	100.403	19.981	7.193	0.957
115.501	163.075	79.997	19.995	100.401	19.980	7.272	0.934
116.001	163.517	79.998	19.995	100.396	19.980	7.276	0.924
116.501	164.035	79.997	19.996	100.395	19.982	7.114	0.940
117.000	164.498	79.997	19.996	100.395	19.982	7.160	0.971
117.500	164.995	79.998	19.997	100.393	19.983	7.106	0.970
118.000	165.477	79.997	19.996	100.395	19.986	6.840	0.969
118.500	165.949	79.997	19.996	100.400	19.981	7.228	0.967
119.000	166.503	79.997	19.996	100.401	19.983	7.075	0.990
119.500	166.957	79.997	19.997	100.399	19.985	6.954	1.017
120.000	167.439	79.996	19.996	100.396	19.983	7.045	0.972
120.501	167.916	79.996	19.996	100.393	19.981	7.234	0.948
121.001	168.409	79.996	19.996	100.394	19.985	6.946	0.965
121.500	168.918	79.995	19.996	100.389	19.986	6.848	0.986
122.000	169.425	79.995	19.995	100.387	19.984	7.001	1.009
122.500	169.884	79.996	19.996	100.391	19.984	6.978	0.991
123.000	170.354	79.997	19.997	100.392	19.985	6.903	0.948
123.500	170.870	79.996	19.996	100.390	19.983	7.083	0.957
124.000	171.394	79.997	19.996	100.395	19.985	6.938	1.012
124.500	171.877	79.995	19.996	100.398	19.985	6.923	1.023
125.000	172.364	79.997	19.997	100.400	19.984	6.977	0.989
125.500	172.850	79.995	19.997	100.401	19.987	6.778	0.972
126.001	173.356	79.995	19.996	100.403	19.986	6.821	0.983
126.501	173.841	79.995	19.996	100.403	19.986	6.815	0.991
127.001	174.342	79.996	19.996	100.402	19.987	6.803	0.988
127.501	174.851	79.996	19.996	100.402	19.986	6.865	0.998
128.000	175.322	79.995	19.996	100.402	19.986	6.840	0.995
128.500	175.789	79.994	19.997	100.402	19.988	6.728	0.959
129.000	176.316	79.995	19.997	100.402	19.989	6.639	0.966
129.500	176.838	79.994	19.996	100.404	19.983	7.045	1.022
130.000	177.337	79.994	19.996	100.402	19.988	6.699	1.035
130.500	177.843	79.994	19.997	100.400	19.988	6.691	1.013
131.000	178.322	79.994	19.997	100.399	19.986	6.823	0.995
131.500	178.858	79.996	19.996	100.397	19.985	6.931	1.000
132.000	179.376	79.994	19.997	100.397	19.986	6.834	1.034
132.500	179.857	79.994	19.997	100.392	19.986	6.884	1.027
133.000	180.340	79.994	19.997	100.387	19.985	6.954	0.982
133.500	180.849	79.995	19.997	100.383	19.988	6.732	0.978
134.000	181.348	79.996	19.997	100.378	19.987	6.736	1.000
134.500	181.868	79.996	19.997	100.372	19.986	6.832	1.014
135.000	182.419	79.995	19.998	100.370	19.985	6.952	1.046
135.500	182.931	79.994	19.997	100.369	19.989	6.656	1.067
136.000	183.407	79.994	19.997	100.370	19.985	6.923	1.025
136.500	183.876	79.995	19.998	100.370	19.986	6.811	0.966
137.000	184.410	79.995	19.997	100.368	19.985	6.954	0.974
137.500	184.912	79.996	19.998	100.368	19.983	7.053	1.019
138.000	185.462	79.995	19.997	100.367	19.988	6.705	1.043
138.500	185.977	79.994	19.997	100.364	19.986	6.833	1.058
139.000	186.513	79.995	19.997	100.364	19.987	6.771	1.058
139.500	187.048	79.996	19.997	100.365	19.986	6.826	1.061
140.000	187.524	79.995	19.997	100.365	19.987	6.788	1.041
140.500	188.063	79.994	19.998	100.365	19.986	6.821	1.013
141.000	188.558	79.995	19.996	100.366	19.990	6.564	1.025
141.500	189.106	79.996	19.998	100.365	19.985	6.937	1.038
142.000	189.621	79.996	19.996	100.365	19.988	6.665	1.053
142.500	190.125	79.995	19.996	100.365	19.987	6.750	1.041
143.000	190.671	79.995	19.997	100.366	19.987	6.791	1.035
143.500	191.114	79.995	19.996	100.367	19.987	6.752	1.020
144.000	191.643	79.994	19.997	100.368	19.990	6.549	0.980
144.500	192.167	79.995	19.996	100.368	19.989	6.655	1.012
145.000	192.683	79.994	19.996	100.368	19.989	6.626	1.047
145.500	193.173	79.995	19.997	100.368	19.987	6.755	1.023
146.000	193.698	79.995	19.996	100.367	19.990	6.508	1.010
146.500	194.253	79.995	19.996	100.367	19.988	6.670	1.048
147.000	194.747	79.995	19.997	100.366	19.988	6.662	1.064
147.500	195.288	79.995	19.996	100.364	19.991	6.495	1.042
148.000	195.767	79.995	19.996	100.361	19.991	6.493	1.027
148.500	196.287	79.995	19.996	100.360	19.991	6.503	1.010
149.000	196.789	79.994	19.996	100.360	19.988	6.666	1.011
149.500	197.299	79.997	19.996	100.361	19.991	6.457	1.017
150.000	197.823	79.995	19.995	100.364	19.991	6.463	1.023
150.500	198.363	79.994	19.996	100.367	19.991	6.444	1.049
151.000	198.824	79.993	19.995	100.367	19.991	6.494	1.032
151.500	199.385	79.995	19.996	100.364	19.990	6.519	1.011
152.000	199.874	79.996	19.997	100.363	19.991	6.440	1.036
152.500	200.406	79.996	19.995	100.357	19.992	6.359	1.036
153.000	200.946	79.994	19.996	100.350	19.995	6.147	1.047
153.500	201.475	79.994	19.995	100.348	19.993	6.317	1.070
154.000	201.997	79.994	19.996	100.350	19.992	6.371	1.060
154.500	202.487	79.994	19.997	100.351	19.992	6.409	1.031
155.000	203.020	79.994	19.997	100.356	19.993	6.305	1.017
155.500	203.549	79.994	19.996	100.363	19.991	6.434	1.042
156.000	204.073	79.995	19.996	100.366	19.991	6.502	1.058
156.500	204.572	79.994	19.996	100.366	19.994	6.239	1.038
157.000	205.100	79.995	19.997	100.367	19.989	6.606	1.025
157.500	205.621	79.995	19.996	100.366	19.994	6.245	1.038
158.000	206.141	79.995	19.997	100.365	19.995	6.149	1.045
158.500	206.669	79.994	19.997	100.359	19.993	6.319	1.044
159.000	207.229	79.994	19.996	100.353	19.997	5.979	1.068
159.500	207.706	79.995	19.996	100.349	19.992	6.377	1.063
160.000	208.279	79.996	19.996	100.342	19.995	6.182	1.044
160.500	208.766	79.995	19.996	100.337	19.995	6.141	1.055
161.000	209.240	79.994	19.997	100.337	19.997	6.050	1.010
161.500	209.832	79.994	19.996	100.336	19.996	6.118	1.014
162.000	210.355	79.995	19.996	100.333	19.994	6.222	1.091
162.500	210.859	79.995	19.996	100.334	19.994	6.245	1.071
163.000	211.360	79.996	19.995	100.333	19.996	6.093	1.016
163.500	211.882	79.995	19.996	100.332	19.993	6.323	1.014
164.000	212.390	79.996	19.995	100.332	19.996	6.070	1.027
164.500	212.930	79.996	19.996	100.331	19.996	6.087	1.039
165.000	213.442	79.996	19.995	100.331	19.994	6.230	1.050
165.500	213.948	79.996	19.996	100.331	19.993	6.298	1.035
166.000	214.468	79.996	19.995	100.332	19.995	6.180	1.022
166.500	215.026	79.996	19.996	100.332	19.992	6.354	1.052
167.000	215.522	79.996	19.996	100.333	19.995	6.143	1.066
167.500	216.030	79.996	19.996	100.332	19.991	6.475	1.029
168.000	216.509	79.995	19.996	100.332	19.996	6.118	0.996
168.500	217.056	79.997	19.996	100.332	19.994	6.207	1.007
169.001	217.563	79.997	19.996	100.330	19.993	6.292	1.040
169.501	218.084	79.997	19.996	100.329	19.993	6.346	1.041
170.000	218.587	79.997	19.996	100.329	19.994	6.255	1.026
170.500	219.128	79.996	19.996	100.328	19.994	6.269	1.034
171.000	219.632	79.997	19.996	100.328	19.996	6.058	1.044
171.501	220.101	79.998	19.997	100.327	19.993	6.294	1.009
172.001	220.662	79.997	19.995	100.328	19.994	6.215	1.001
172.500	221.179	79.997	19.996	100.328	19.993	6.317	1.054
