Sample ID:	C:\MCC\MCC Cal\Test\Straw_MCC_30K_220318_R3.txt
Sample Weight (mg):	4.63
Heating Rate (C/s):	0.5
Combustor Temp (C):	900
N2 Flow Rate (cc/min):	80
O2 Flow Rate (cc/min):	20
Calibration File:	C:\MCC\MCC Cal\Coeff1 JN10440_30_210304.txt.txt
T Correction Coefficients:	0	1.024463	0
Time Shift (s):	14
*
Time (s)	Temperature (C)	N2 flow rate (cc/min)	O2 flow rate (cc/min)	Flow Rate (cc/min)	Oxygen (%)	HRR (W/g)	Heating rate (C/s)
0.000	112.550	80.003	19.994	103.741	20.044	0.151	0.021
0.500	112.523	80.003	19.993	103.740	20.047	-0.019	0.010
1.000	112.526	80.002	19.994	103.741	20.047	-0.042	-0.016
1.500	112.553	80.005	19.994	103.741	20.046	0.048	0.003
2.000	112.534	80.003	19.994	103.741	20.044	0.195	0.019
2.500	112.513	80.004	19.994	103.741	20.046	0.000	-0.017
3.000	112.527	80.004	19.993	103.741	20.049	-0.205	-0.024
3.500	112.505	80.003	19.993	103.740	20.047	-0.029	-0.007
4.000	112.493	80.002	19.994	103.739	20.049	-0.188	-0.021
4.500	112.502	80.005	19.995	103.738	20.048	-0.083	-0.019
5.000	112.548	80.004	19.995	103.737	20.045	0.077	0.026
5.500	112.532	80.004	19.994	103.737	20.045	0.073	0.043
6.000	112.547	80.005	19.995	103.738	20.044	0.172	0.015
6.500	112.520	80.003	19.994	103.738	20.044	0.172	-0.006
7.000	112.541	80.004	19.995	103.738	20.046	0.017	-0.009
7.500	112.551	80.004	19.994	103.738	20.043	0.261	0.012
8.000	112.546	80.004	19.995	103.737	20.048	-0.099	0.018
8.501	112.553	80.005	19.994	103.736	20.045	0.095	0.004
9.001	112.552	80.004	19.994	103.735	20.046	0.025	0.004
9.500	112.562	80.005	19.994	103.711	20.046	0.048	0.007
10.000	112.551	80.004	19.994	103.684	20.047	-0.072	0.004
10.500	112.544	80.004	19.993	103.672	20.044	0.139	-0.010
11.000	112.524	80.006	19.995	103.668	20.049	-0.161	-0.022
11.500	112.524	80.004	19.994	103.669	20.048	-0.106	-0.023
12.001	112.542	80.005	19.995	103.698	20.045	0.112	-0.001
12.501	112.553	80.006	19.993	103.752	20.043	0.219	0.023
13.000	112.549	80.005	19.994	103.809	20.042	0.309	0.018
13.500	112.565	80.006	19.993	103.833	20.044	0.178	0.010
14.000	112.520	80.005	19.994	103.847	20.042	0.305	-0.008
14.500	112.557	80.007	19.994	103.855	20.040	0.424	-0.019
15.000	112.561	80.005	19.994	103.843	20.038	0.553	0.016
15.500	112.585	80.006	19.994	103.813	20.039	0.511	0.035
16.000	112.562	80.007	19.993	103.815	20.041	0.385	0.015
16.500	112.592	80.008	19.994	103.823	20.035	0.808	0.004
17.000	112.628	80.006	19.994	103.831	20.036	0.740	0.036
17.500	112.630	80.008	19.994	103.835	20.033	0.931	0.052
18.000	112.643	80.005	19.994	103.842	20.032	0.980	0.027
18.500	112.678	80.006	19.995	103.844	20.029	1.216	0.031
19.000	112.676	80.007	19.993	103.845	20.032	0.987	0.040
19.500	112.646	80.007	19.994	103.847	20.028	1.266	0.001
20.000	112.701	80.006	19.993	103.852	20.028	1.299	-0.003
20.500	112.702	80.005	19.993	103.854	20.027	1.367	0.040
21.000	112.738	80.007	19.993	103.854	20.022	1.671	0.046
21.500	112.764	80.006	19.994	103.856	20.025	1.479	0.050
22.000	112.772	80.005	19.995	103.863	20.023	1.626	0.048
22.500	112.848	80.006	19.994	103.876	20.023	1.632	0.059
23.000	112.887	80.006	19.994	103.862	20.022	1.671	0.100
23.500	112.899	80.004	19.993	103.841	20.021	1.798	0.083
24.000	112.947	80.004	19.994	103.826	20.020	1.845	0.055
24.500	112.984	80.005	19.994	103.816	20.019	1.940	0.073
25.001	112.993	80.003	19.993	103.805	20.019	1.899	0.066
25.501	113.074	80.005	19.994	103.825	20.018	2.012	0.068
26.000	113.110	80.005	19.994	103.875	20.019	1.884	0.104
26.500	113.147	80.002	19.994	103.931	20.016	2.120	0.095
27.000	113.196	80.002	19.994	103.958	20.016	2.105	0.079
27.500	113.231	80.004	19.993	103.973	20.015	2.165	0.085
28.000	113.289	80.004	19.993	103.976	20.015	2.172	0.088
28.500	113.319	80.003	19.994	103.959	20.015	2.223	0.090
29.000	113.379	80.003	19.994	103.930	20.014	2.252	0.089
29.500	113.446	80.006	19.994	103.922	20.014	2.234	0.109
30.001	113.504	80.002	19.993	103.922	20.011	2.476	0.126
30.501	113.569	80.002	19.994	103.928	20.011	2.451	0.124
31.001	113.626	80.004	19.994	103.932	20.010	2.540	0.123
31.500	113.686	80.004	19.996	103.933	20.012	2.389	0.119
32.000	113.733	80.005	19.994	103.932	20.012	2.410	0.111
32.500	113.837	80.004	19.994	103.931	20.009	2.585	0.129
33.000	113.868	80.003	19.995	103.929	20.007	2.730	0.143
33.500	113.942	80.004	19.994	103.929	20.009	2.641	0.120
34.000	114.027	80.004	19.994	103.929	20.007	2.757	0.132
34.500	114.101	80.002	19.993	103.932	20.011	2.441	0.159
35.000	114.195	80.004	19.994	103.935	20.009	2.596	0.163
35.500	114.230	80.003	19.994	103.938	20.010	2.521	0.148
36.000	114.319	80.003	19.994	103.943	20.008	2.656	0.127
36.500	114.396	80.003	19.994	103.948	20.007	2.790	0.145
37.000	114.530	80.004	19.995	103.950	20.005	2.873	0.188
37.500	114.615	80.003	19.994	103.951	20.009	2.643	0.215
38.000	114.647	80.003	19.995	103.953	20.005	2.861	0.168
38.500	114.754	80.002	19.995	103.947	20.006	2.805	0.128
39.000	114.846	80.003	19.995	103.943	20.005	2.925	0.169
39.500	114.922	80.004	19.995	103.940	20.006	2.802	0.183
40.000	115.037	80.003	19.994	103.938	20.007	2.786	0.180
40.500	115.098	80.005	19.995	103.935	20.006	2.831	0.183
41.000	115.199	80.001	19.995	103.937	20.004	2.978	0.169
41.500	115.324	80.003	19.995	103.937	20.005	2.901	0.194
42.000	115.437	80.003	19.995	103.941	20.008	2.686	0.232
42.500	115.487	80.002	19.994	103.945	20.000	3.228	0.200
43.000	115.599	80.004	19.995	103.946	20.005	2.918	0.162
43.500	115.703	80.001	19.995	103.945	20.003	3.028	0.189
44.001	115.779	80.003	19.996	103.945	20.005	2.897	0.198
44.501	115.886	80.001	19.994	103.940	20.005	2.866	0.181
45.000	116.014	80.003	19.995	103.935	20.003	3.008	0.209
45.500	116.101	80.003	19.995	103.935	20.004	2.955	0.225
46.000	116.245	80.002	19.995	103.934	20.003	3.021	0.223
46.501	116.364	80.004	19.994	103.934	20.003	3.048	0.247
47.001	116.471	80.005	19.995	103.935	20.004	2.988	0.245
47.500	116.594	80.003	19.995	103.935	20.004	2.984	0.228
48.000	116.675	80.005	19.995	103.935	20.005	2.888	0.217
48.500	116.836	80.002	19.994	103.935	20.005	2.884	0.223
49.000	116.931	80.002	19.993	103.935	20.005	2.866	0.249
49.501	117.069	80.001	19.994	103.935	20.005	2.928	0.244
50.001	117.198	80.003	19.996	103.941	20.003	3.031	0.250
50.501	117.313	80.003	19.995	103.945	20.005	2.872	0.256
51.000	117.450	80.002	19.995	103.952	20.004	2.967	0.248
51.500	117.567	80.004	19.996	103.959	20.003	3.035	0.253
52.000	117.687	80.002	19.995	103.960	20.001	3.153	0.245
52.500	117.805	80.004	19.994	103.954	20.003	3.027	0.237
53.000	117.925	80.004	19.995	103.954	20.000	3.251	0.238
53.500	118.050	80.005	19.995	103.952	20.000	3.213	0.242
54.001	118.201	80.001	19.994	103.953	20.002	3.098	0.261
54.501	118.313	80.004	19.995	103.959	19.999	3.298	0.269
55.001	118.443	80.004	19.994	103.966	20.001	3.195	0.252
55.501	118.542	80.003	19.995	103.969	20.000	3.220	0.236
56.001	118.706	80.003	19.994	103.971	20.001	3.172	0.246
56.500	118.806	80.001	19.994	103.971	20.000	3.213	0.264
57.000	118.997	80.002	19.994	103.972	20.002	3.116	0.278
57.501	119.122	80.002	19.994	103.973	20.002	3.120	0.303
58.001	119.251	80.001	19.994	103.974	20.004	2.990	0.285
58.500	119.362	80.001	19.995	103.976	20.002	3.096	0.247
59.001	119.503	80.001	19.995	103.976	20.002	3.112	0.245
59.501	119.650	80.001	19.994	103.977	20.000	3.266	0.270
60.000	119.820	80.000	19.995	103.976	20.002	3.092	0.303
60.500	119.944	80.002	19.995	103.977	20.002	3.112	0.306
61.000	120.118	80.003	19.995	103.975	20.002	3.083	0.296
61.500	120.255	80.001	19.994	103.975	20.001	3.157	0.305
62.000	120.414	80.002	19.995	103.973	20.003	3.035	0.303
62.500	120.567	79.999	19.995	103.973	20.003	3.017	0.304
63.000	120.719	80.001	19.994	103.971	20.004	2.982	0.308
63.500	120.889	80.001	19.995	103.967	20.008	2.684	0.313
64.000	121.049	80.002	19.995	103.965	20.003	3.052	0.326
64.500	121.182	80.002	19.995	103.965	20.004	2.971	0.312
65.000	121.320	80.000	19.995	103.964	20.005	2.907	0.282
65.500	121.482	80.001	19.995	103.963	20.005	2.911	0.286
66.001	121.619	80.002	19.994	103.965	20.006	2.820	0.299
66.501	121.767	80.003	19.995	103.962	20.005	2.911	0.292
67.000	121.951	80.004	19.995	103.963	20.002	3.085	0.309
67.501	122.128	80.002	19.996	103.965	19.999	3.325	0.346
68.001	122.270	80.001	19.995	103.966	20.005	2.889	0.340
68.500	122.455	80.004	19.996	103.962	20.003	3.068	0.323
69.000	122.613	80.004	19.995	103.959	20.003	3.050	0.335
69.500	122.764	80.003	19.995	103.953	20.002	3.100	0.326
70.000	122.975	80.002	19.995	103.953	20.005	2.905	0.336
70.500	123.146	80.002	19.995	103.953	20.005	2.905	0.372
71.000	123.289	80.003	19.994	103.959	20.004	2.967	0.348
71.500	123.490	80.003	19.995	103.965	20.005	2.907	0.329
72.000	123.628	80.005	19.995	103.970	20.004	2.990	0.342
72.500	123.800	80.005	19.995	103.970	20.003	3.013	0.324
73.000	123.941	80.004	19.995	103.967	20.004	2.953	0.311
73.500	124.106	80.003	19.995	103.966	20.004	2.940	0.309
74.000	124.322	80.004	19.996	103.967	20.002	3.116	0.343
74.500	124.464	80.004	19.995	103.966	20.003	3.040	0.370
75.000	124.686	80.005	19.995	103.966	20.003	3.009	0.361
75.500	124.836	80.003	19.995	103.968	20.003	3.066	0.368
76.000	124.993	80.004	19.997	103.970	20.006	2.831	0.339
76.500	125.193	80.004	19.995	103.969	20.002	3.104	0.332
77.000	125.338	80.005	19.996	103.970	20.005	2.880	0.351
77.500	125.544	80.006	19.995	103.969	20.006	2.853	0.348
78.000	125.742	80.006	19.995	103.968	20.001	3.195	0.377
78.500	125.930	80.004	19.996	103.969	20.003	3.021	0.395
79.000	126.104	80.005	19.995	103.969	20.006	2.822	0.374
79.500	126.247	80.005	19.995	103.969	20.003	3.027	0.340
80.001	126.450	80.006	19.996	103.970	20.007	2.752	0.332
80.501	126.620	80.005	19.995	103.970	20.006	2.812	0.359
81.001	126.775	80.003	19.994	103.968	20.003	3.044	0.349
81.501	126.999	80.004	19.994	103.966	20.001	3.147	0.352
82.001	127.153	80.005	19.994	103.963	20.003	3.067	0.379
82.501	127.324	80.004	19.994	103.963	20.001	3.164	0.352
83.001	127.548	80.004	19.993	103.963	19.998	3.366	0.360
83.501	127.697	80.004	19.994	103.965	20.000	3.216	0.384
84.001	127.878	80.004	19.993	103.967	19.999	3.288	0.351
84.500	128.095	80.005	19.994	103.970	20.001	3.189	0.364
85.001	128.278	80.004	19.994	103.970	20.002	3.075	0.399
85.501	128.516	80.004	19.994	103.971	20.001	3.195	0.410
86.000	128.699	80.004	19.993	103.972	20.002	3.106	0.421
86.500	128.875	80.006	19.994	103.972	20.001	3.145	0.390
87.000	129.062	80.005	19.994	103.972	20.001	3.174	0.361
87.500	129.274	80.005	19.993	103.973	20.000	3.236	0.381
88.001	129.437	80.005	19.994	103.972	20.002	3.075	0.387
88.501	129.672	80.005	19.994	103.972	20.003	3.025	0.387
89.000	129.844	80.003	19.994	103.970	20.004	2.949	0.403
89.500	130.052	80.004	19.994	103.969	20.001	3.211	0.393
90.000	130.198	80.005	19.994	103.969	20.002	3.120	0.366
90.500	130.446	80.006	19.995	103.969	20.003	3.004	0.374
91.001	130.646	80.004	19.995	103.970	20.000	3.263	0.421
91.501	130.851	80.005	19.994	103.971	20.001	3.209	0.427
92.001	131.042	80.006	19.995	103.972	19.998	3.383	0.401
92.501	131.207	80.007	19.995	103.971	20.004	2.957	0.375
93.000	131.426	80.006	19.994	103.967	20.000	3.246	0.370
93.500	131.672	80.006	19.994	103.967	19.999	3.300	0.424
94.000	131.809	80.004	19.994	103.964	20.000	3.244	0.424
94.501	132.048	80.005	19.994	103.964	20.002	3.132	0.379
95.001	132.259	80.006	19.994	103.965	20.003	3.041	0.413
95.500	132.454	80.007	19.994	103.968	20.002	3.132	0.428
96.000	132.636	80.005	19.994	103.969	20.004	2.990	0.391
96.500	132.832	80.006	19.993	103.971	19.999	3.337	0.377
97.000	133.031	80.006	19.994	103.971	19.999	3.294	0.387
97.500	133.259	80.006	19.994	103.971	20.003	3.052	0.411
98.000	133.463	80.009	19.994	103.971	20.002	3.112	0.429
98.500	133.634	80.005	19.993	103.972	20.002	3.101	0.404
99.001	133.886	80.007	19.994	103.972	20.002	3.089	0.399
99.501	134.120	80.005	19.994	103.972	20.001	3.168	0.455
100.001	134.323	80.007	19.993	103.973	20.000	3.240	0.461
100.501	134.522	80.005	19.994	103.973	19.999	3.308	0.419
101.001	134.695	80.006	19.993	103.973	20.003	3.021	0.387
101.500	134.947	80.005	19.994	103.972	20.002	3.106	0.399
102.000	135.124	80.005	19.994	103.972	20.003	3.023	0.427
102.500	135.353	80.004	19.994	103.972	20.005	2.897	0.417
103.000	135.571	80.007	19.994	103.972	20.002	3.074	0.427
103.500	135.799	80.005	19.993	103.973	20.002	3.116	0.447
104.000	135.997	80.005	19.993	103.972	20.008	2.680	0.436
104.500	136.230	80.006	19.994	103.973	20.001	3.160	0.429
105.000	136.423	80.004	19.993	103.972	20.001	3.187	0.428
105.500	136.640	80.005	19.994	103.975	20.002	3.089	0.418
106.000	136.854	80.006	19.994	103.978	20.000	3.234	0.421
106.500	137.049	80.008	19.994	103.978	20.002	3.104	0.420
107.000	137.255	80.006	19.994	103.979	20.002	3.087	0.405
107.500	137.494	80.005	19.994	103.979	19.999	3.306	0.423
108.000	137.734	80.005	19.993	103.976	20.000	3.265	0.462
108.500	137.946	80.005	19.994	103.973	19.998	3.352	0.465
109.000	138.151	80.001	19.993	103.973	20.002	3.130	0.434
109.500	138.383	80.002	19.994	103.973	20.002	3.077	0.426
110.001	138.660	80.007	19.995	103.974	20.001	3.165	0.473
110.501	138.844	80.004	19.996	103.974	20.004	2.942	0.485
111.000	139.041	80.004	19.994	103.974	19.999	3.289	0.422
111.501	139.278	80.003	19.996	103.974	20.000	3.261	0.408
112.001	139.489	80.005	19.994	103.975	20.000	3.277	0.441
112.500	139.707	80.002	19.994	103.975	20.003	3.031	0.438
113.000	139.949	80.004	19.994	103.975	19.999	3.298	0.444
113.500	140.173	80.005	19.995	103.976	20.002	3.128	0.463
114.001	140.392	80.003	19.993	103.976	20.004	2.973	0.455
114.501	140.630	80.003	19.994	103.973	19.997	3.447	0.450
115.000	140.881	80.004	19.994	103.968	20.003	3.066	0.473
115.500	141.082	80.003	19.994	103.966	20.002	3.093	0.470
116.001	141.314	80.003	19.994	103.965	20.002	3.097	0.443
116.501	141.526	80.003	19.993	103.965	20.002	3.114	0.439
117.000	141.762	80.005	19.994	103.968	20.005	2.913	0.446
117.500	141.981	80.003	19.994	103.971	20.005	2.880	0.451
118.001	142.193	80.002	19.994	103.973	19.998	3.391	0.443
118.501	142.450	80.005	19.994	103.973	20.002	3.097	0.450
119.001	142.662	80.005	19.995	103.973	20.001	3.186	0.469
119.501	142.915	80.002	19.992	103.973	20.002	3.118	0.467
120.001	143.147	80.004	19.994	103.975	20.003	3.027	0.475
120.501	143.322	80.002	19.994	103.975	20.002	3.101	0.446
121.001	143.568	80.002	19.993	103.975	20.000	3.246	0.414
121.500	143.809	80.003	19.993	103.975	20.003	3.056	0.454
122.000	144.049	80.004	19.994	103.977	20.001	3.205	0.484
122.501	144.265	80.002	19.994	103.978	19.999	3.283	0.468
123.001	144.555	80.002	19.993	103.977	20.001	3.151	0.481
123.501	144.771	80.002	19.994	103.977	20.002	3.081	0.506
124.001	144.995	80.004	19.994	103.977	20.002	3.098	0.473
124.501	145.219	80.003	19.995	103.973	20.003	3.019	0.444
125.000	145.459	80.001	19.993	103.970	20.003	3.028	0.456
125.500	145.686	80.002	19.994	103.970	20.003	3.007	0.465
126.000	145.925	80.005	19.994	103.971	20.002	3.094	0.467
126.500	146.163	80.003	19.994	103.971	20.002	3.114	0.472
127.001	146.411	80.003	19.994	103.974	20.004	2.980	0.481
127.501	146.649	80.003	19.993	103.975	20.001	3.176	0.486
128.000	146.842	80.002	19.993	103.975	20.000	3.250	0.458
128.500	147.071	80.002	19.995	103.975	20.003	3.017	0.427
129.000	147.290	80.003	19.994	103.975	20.002	3.127	0.435
129.500	147.551	80.004	19.993	103.974	20.003	3.061	0.464
130.000	147.815	80.002	19.993	103.975	20.005	2.864	0.502
130.500	148.052	80.001	19.993	103.975	20.005	2.862	0.513
131.000	148.275	80.002	19.995	103.974	20.006	2.800	0.481
131.500	148.511	80.003	19.995	103.973	20.003	3.015	0.460
132.000	148.738	80.002	19.995	103.973	20.004	2.998	0.462
132.500	149.009	80.002	19.995	103.972	20.004	2.978	0.480
133.000	149.251	80.005	19.995	103.973	20.003	3.007	0.505
133.500	149.505	80.002	19.994	103.972	20.004	2.965	0.504
134.000	149.741	80.003	19.994	103.969	20.003	3.021	0.493
134.500	149.941	80.002	19.995	103.965	20.004	2.990	0.463
135.000	150.189	80.003	19.996	103.964	20.001	3.164	0.442
135.500	150.456	80.003	19.994	103.960	20.005	2.905	0.481
136.000	150.654	80.003	19.994	103.956	20.003	3.015	0.490
136.500	150.893	80.002	19.995	103.959	19.999	3.344	0.451
137.000	151.148	80.002	19.995	103.963	20.001	3.151	0.466
137.500	151.387	80.001	19.994	103.964	20.003	3.019	0.494
138.000	151.619	80.003	19.995	103.967	20.004	2.951	0.482
138.500	151.834	80.004	19.994	103.971	20.001	3.207	0.459
139.000	152.120	80.002	19.995	103.971	20.002	3.092	0.474
139.500	152.351	80.002	19.995	103.967	20.000	3.233	0.509
140.000	152.604	80.002	19.995	103.961	20.005	2.885	0.501
140.500	152.826	80.001	19.995	103.954	20.001	3.152	0.480
141.000	153.092	80.003	19.995	103.951	20.002	3.102	0.482
141.500	153.299	80.003	19.994	103.949	20.002	3.123	0.481
142.000	153.565	80.001	19.995	103.952	20.003	3.017	0.473
142.500	153.839	80.003	19.995	103.957	20.002	3.096	0.506
143.000	154.031	80.004	19.996	103.963	20.003	3.034	0.502
143.500	154.290	80.001	19.995	103.965	20.002	3.085	0.458
144.000	154.535	80.004	19.996	103.964	20.001	3.170	0.478
144.500	154.740	80.002	19.995	103.964	20.002	3.114	0.477
145.000	155.026	80.003	19.995	103.963	20.003	3.058	0.471
145.500	155.258	80.002	19.995	103.962	20.005	2.901	0.505
146.000	155.483	80.003	19.995	103.961	20.002	3.137	0.487
146.500	155.693	80.004	19.994	103.962	20.004	2.953	0.446
147.000	155.907	80.004	19.995	103.963	20.003	3.053	0.430
147.500	156.217	80.004	19.994	103.964	20.000	3.216	0.474
148.000	156.419	80.004	19.994	103.967	19.999	3.302	0.518
148.500	156.704	80.003	19.995	103.969	20.002	3.100	0.500
149.000	156.929	80.004	19.994	103.968	20.001	3.180	0.499
149.500	157.181	80.005	19.995	103.962	20.000	3.257	0.493
150.000	157.429	80.003	19.994	103.954	20.003	3.038	0.488
150.500	157.696	80.004	19.994	103.949	20.003	3.030	0.508
151.001	157.930	80.004	19.995	103.942	20.002	3.089	0.508
151.500	158.176	80.005	19.995	103.945	20.004	2.974	0.490
152.000	158.399	80.005	19.995	103.949	20.001	3.153	0.474
152.500	158.630	80.004	19.995	103.954	20.002	3.091	0.462
153.000	158.894	80.004	19.994	103.958	20.001	3.170	0.475
153.500	159.144	80.004	19.994	103.963	20.000	3.224	0.504
154.000	159.371	80.004	19.994	103.963	20.000	3.259	0.495
154.500	159.625	80.005	19.995	103.964	19.999	3.323	0.479
155.000	159.887	80.004	19.995	103.968	20.000	3.228	0.498
155.501	160.112	80.004	19.994	103.967	20.001	3.162	0.502
156.000	160.360	80.005	19.995	103.963	19.999	3.327	0.480
156.500	160.637	80.006	19.995	103.957	19.997	3.445	0.499
157.000	160.869	80.005	19.995	103.955	19.996	3.510	0.517
157.500	161.141	80.004	19.995	103.951	19.997	3.471	0.507
158.000	161.377	80.003	19.995	103.952	20.003	3.034	0.506
158.500	161.621	80.005	19.994	103.957	20.002	3.123	0.494
159.000	161.884	80.004	19.995	103.961	20.002	3.123	0.493
159.500	162.130	80.006	19.996	103.961	20.004	2.996	0.508
160.000	162.354	80.003	19.994	103.963	20.001	3.185	0.490
160.500	162.603	80.003	19.994	103.960	20.000	3.212	0.472
161.000	162.832	80.004	19.995	103.960	20.003	3.053	0.476
161.500	163.081	80.005	19.995	103.961	20.002	3.102	0.478
162.000	163.297	80.004	19.995	103.963	20.001	3.175	0.472
162.500	163.585	80.002	19.996	103.963	20.003	3.070	0.484
163.000	163.829	80.004	19.995	103.963	20.001	3.192	0.518
163.500	164.095	80.003	19.996	103.964	20.001	3.196	0.521
164.000	164.354	80.004	19.994	103.964	20.000	3.278	0.518
164.500	164.584	80.005	19.996	103.964	20.003	3.036	0.507
165.000	164.827	80.004	19.995	103.961	20.002	3.140	0.481
165.500	165.050	80.004	19.995	103.964	20.000	3.214	0.469
166.000	165.368	80.004	19.997	103.963	20.003	3.067	0.504
166.500	165.593	80.003	19.995	103.964	20.002	3.076	0.543
167.000	165.859	80.003	19.995	103.957	20.003	3.065	0.517
167.500	166.070	80.004	19.995	103.955	20.004	2.941	0.484
168.000	166.347	80.004	19.996	103.949	20.005	2.914	0.482
168.500	166.559	80.002	19.996	103.944	20.005	2.867	0.488
169.000	166.830	80.003	19.994	103.942	20.003	3.034	0.486
169.500	167.055	80.003	19.997	103.947	20.006	2.824	0.489
170.000	167.340	80.002	19.997	103.955	20.004	2.977	0.503
170.500	167.542	80.003	19.996	103.962	20.005	2.927	0.498
171.000	167.822	80.002	19.995	103.962	20.007	2.774	0.484
171.500	168.053	80.004	19.996	103.957	20.002	3.126	0.497
172.000	168.323	80.004	19.995	103.951	20.005	2.906	0.506
172.500	168.588	80.003	19.996	103.944	20.006	2.852	0.518
