Sample ID:	C:\MCC\MCC Cal\Test\Straw_MCC_30K_220317_R1.txt
Sample Weight (mg):	4.54
Heating Rate (C/s):	0.5
Combustor Temp (C):	900
N2 Flow Rate (cc/min):	80
O2 Flow Rate (cc/min):	20
Calibration File:	C:\MCC\MCC Cal\Coeff1 JN10440_30_210304.txt.txt
T Correction Coefficients:	0	1.024463	0
Time Shift (s):	14
*
Time (s)	Temperature (C)	N2 flow rate (cc/min)	O2 flow rate (cc/min)	Flow Rate (cc/min)	Oxygen (%)	HRR (W/g)	Heating rate (C/s)
0.000	106.432	80.004	19.994	103.576	20.033	0.032	0.013
0.500	106.377	80.002	19.994	103.577	20.032	0.053	-0.007
1.000	106.439	80.003	19.995	103.576	20.033	0.041	-0.008
1.500	106.381	80.003	19.995	103.576	20.029	0.298	0.006
2.000	106.382	80.003	19.995	103.576	20.032	0.101	-0.026
2.500	106.403	80.002	19.995	103.576	20.027	0.456	-0.017
3.000	106.442	80.002	19.995	103.575	20.029	0.312	0.041
3.500	106.392	80.003	19.993	103.575	20.029	0.273	0.025
4.000	106.402	80.001	19.993	103.575	20.029	0.267	-0.026
4.500	106.402	80.001	19.995	103.575	20.029	0.271	-0.015
5.000	106.361	80.001	19.995	103.575	20.031	0.132	-0.016
5.500	106.386	80.003	19.994	103.578	20.028	0.379	-0.028
6.000	106.356	80.002	19.993	103.583	20.030	0.249	-0.010
6.500	106.349	80.003	19.995	103.585	20.029	0.284	-0.021
7.000	106.392	80.002	19.995	103.590	20.028	0.383	-0.001
7.500	106.384	80.002	19.996	103.595	20.029	0.279	0.036
8.000	106.406	79.998	19.996	103.594	20.028	0.391	0.025
8.500	106.384	80.001	19.995	103.593	20.029	0.285	0.007
9.000	106.448	80.001	19.994	103.596	20.028	0.352	0.021
9.500	106.427	80.001	19.995	103.594	20.025	0.585	0.042
10.000	106.453	80.001	19.995	103.590	20.025	0.569	0.024
10.500	106.467	80.000	19.995	103.591	20.024	0.654	0.022
11.001	106.443	80.000	19.995	103.595	20.028	0.378	0.015
11.501	106.435	80.001	19.995	103.594	20.023	0.745	-0.021
12.000	106.466	80.001	19.996	103.597	20.025	0.589	-0.004
12.500	106.474	80.002	19.995	103.604	20.024	0.623	0.031
13.000	106.460	80.001	19.995	103.610	20.027	0.465	0.016
13.500	106.491	80.002	19.995	103.615	20.022	0.801	0.005
14.000	106.459	80.002	19.995	103.624	20.025	0.575	0.008
14.500	106.475	80.001	19.995	103.627	20.025	0.575	-0.008
15.000	106.480	80.002	19.996	103.631	20.025	0.575	0.003
15.500	106.479	80.001	19.995	103.633	20.021	0.850	0.012
16.000	106.518	80.001	19.996	103.636	20.021	0.882	0.021
16.500	106.464	80.001	19.995	103.638	20.019	1.010	0.011
17.000	106.498	80.001	19.995	103.645	20.017	1.133	-0.018
17.500	106.519	80.000	19.995	103.656	20.019	0.997	0.018
18.000	106.534	80.000	19.998	103.667	20.016	1.204	0.046
18.500	106.528	80.002	19.998	103.677	20.019	1.026	0.022
19.000	106.567	80.000	19.996	103.686	20.017	1.133	0.021
19.500	106.600	80.001	19.996	103.693	20.017	1.143	0.052
20.000	106.594	80.001	19.997	103.695	20.015	1.291	0.050
20.500	106.640	80.001	19.996	103.700	20.016	1.218	0.034
21.000	106.717	80.003	19.995	103.702	20.014	1.372	0.082
21.500	106.666	80.001	19.996	103.709	20.011	1.600	0.074
22.000	106.712	80.002	19.996	103.716	20.010	1.639	0.010
22.500	106.747	80.001	19.996	103.722	20.011	1.572	0.038
23.000	106.776	80.003	19.995	103.728	20.006	1.938	0.072
23.500	106.812	80.003	19.995	103.738	20.009	1.691	0.064
24.000	106.839	80.003	19.994	103.745	20.004	2.043	0.064
24.500	106.884	80.002	19.996	103.753	20.008	1.815	0.068
25.000	106.912	80.001	19.996	103.759	20.007	1.853	0.073
25.500	106.941	80.001	19.995	103.767	20.005	2.031	0.065
26.000	107.011	80.001	19.994	103.768	20.003	2.167	0.078
26.500	107.041	80.002	19.994	103.767	20.002	2.199	0.100
27.000	107.100	80.002	19.995	103.766	20.002	2.217	0.094
27.500	107.130	80.001	19.995	103.766	20.000	2.328	0.089
28.000	107.221	80.002	19.994	103.766	20.001	2.267	0.105
28.500	107.268	80.002	19.995	103.765	20.000	2.364	0.130
29.000	107.322	80.001	19.995	103.766	20.001	2.326	0.120
29.500	107.354	80.001	19.995	103.767	20.001	2.311	0.093
30.000	107.399	80.001	19.995	103.768	20.001	2.303	0.081
30.500	107.456	80.002	19.995	103.768	19.999	2.437	0.090
31.000	107.508	80.002	19.994	103.769	20.000	2.378	0.106
31.500	107.615	80.001	19.995	103.774	19.998	2.482	0.134
32.000	107.677	80.001	19.996	103.776	20.000	2.387	0.164
32.500	107.760	80.001	19.996	103.777	19.996	2.617	0.157
33.000	107.808	80.000	19.994	103.777	19.998	2.500	0.138
33.500	107.917	80.001	19.995	103.777	19.993	2.848	0.144
34.000	107.931	80.000	19.995	103.773	19.994	2.801	0.140
34.500	108.059	80.000	19.996	103.772	19.997	2.579	0.132
35.000	108.125	80.002	19.996	103.771	19.996	2.619	0.168
35.500	108.187	80.000	19.995	103.772	19.996	2.628	0.161
36.000	108.282	80.002	19.996	103.775	19.995	2.739	0.142
36.500	108.378	80.000	19.994	103.775	19.993	2.864	0.174
37.000	108.420	80.000	19.996	103.775	19.993	2.850	0.165
37.500	108.515	80.001	19.996	103.778	19.991	3.002	0.138
38.000	108.599	79.999	19.995	103.785	19.991	2.996	0.158
38.500	108.687	80.000	19.995	103.791	19.991	2.983	0.175
39.000	108.826	80.000	19.996	103.798	19.987	3.272	0.200
39.500	108.890	80.001	19.995	103.807	19.989	3.147	0.215
40.000	108.987	80.001	19.996	103.811	19.990	3.044	0.182
40.501	109.061	80.001	19.996	103.812	19.991	3.010	0.166
41.001	109.185	80.002	19.995	103.812	19.989	3.131	0.185
41.500	109.268	80.002	19.996	103.807	19.991	2.975	0.202
42.000	109.416	80.001	19.996	103.801	19.990	3.072	0.219
42.500	109.465	80.001	19.996	103.794	19.991	2.973	0.214
43.000	109.583	80.001	19.996	103.789	19.990	3.084	0.182
43.500	109.714	80.001	19.996	103.783	19.991	3.006	0.208
44.000	109.799	80.002	19.996	103.782	19.991	2.979	0.232
44.500	109.908	80.001	19.996	103.782	19.993	2.880	0.205
45.000	110.047	80.002	19.995	103.786	19.991	2.979	0.221
45.500	110.122	80.002	19.996	103.787	19.990	3.054	0.231
46.000	110.247	80.001	19.996	103.790	19.992	2.963	0.207
46.500	110.314	80.002	19.996	103.786	19.993	2.826	0.196
47.001	110.471	80.003	19.995	103.784	19.990	3.040	0.207
47.501	110.534	80.001	19.995	103.781	19.989	3.116	0.222
48.000	110.659	80.002	19.995	103.779	19.991	2.999	0.204
48.500	110.770	80.003	19.995	103.779	19.991	2.995	0.212
49.000	110.872	80.003	19.995	103.784	19.992	2.908	0.225
49.500	111.029	80.003	19.994	103.789	19.991	2.975	0.236
50.000	111.135	80.001	19.995	103.795	19.992	2.926	0.260
50.500	111.255	80.003	19.994	103.796	19.992	2.938	0.244
51.000	111.327	80.002	19.995	103.793	19.989	3.153	0.209
51.500	111.467	80.001	19.994	103.789	19.993	2.868	0.202
52.000	111.587	80.002	19.994	103.786	19.991	3.003	0.236
52.501	111.735	80.002	19.994	103.785	19.990	3.086	0.264
53.001	111.803	80.002	19.996	103.787	19.989	3.112	0.242
53.501	111.949	80.003	19.995	103.792	19.990	3.074	0.216
54.001	112.091	80.001	19.995	103.795	19.991	3.003	0.251
54.500	112.220	80.002	19.994	103.793	19.989	3.130	0.279
55.000	112.348	80.003	19.993	103.789	19.988	3.197	0.264
55.500	112.456	80.000	19.993	103.789	19.990	3.080	0.247
56.000	112.603	80.002	19.994	103.785	19.987	3.302	0.245
56.500	112.752	80.002	19.995	103.784	19.988	3.252	0.276
57.000	112.869	80.002	19.994	103.789	19.990	3.086	0.282
57.500	112.995	80.002	19.995	103.794	19.987	3.298	0.255
58.000	113.141	80.002	19.994	103.797	19.988	3.232	0.258
58.500	113.303	80.001	19.995	103.804	19.989	3.177	0.290
59.000	113.418	80.000	19.994	103.811	19.991	3.009	0.292
59.500	113.569	80.003	19.994	103.812	19.989	3.167	0.271
60.000	113.701	80.001	19.994	103.812	19.990	3.098	0.274
60.500	113.813	80.002	19.994	103.811	19.989	3.142	0.263
61.000	114.009	80.001	19.995	103.811	19.989	3.114	0.276
61.500	114.094	80.001	19.995	103.812	19.991	3.001	0.294
62.000	114.281	80.001	19.993	103.812	19.988	3.187	0.276
62.500	114.415	80.001	19.992	103.811	19.991	3.003	0.297
63.000	114.560	80.000	19.994	103.810	19.989	3.175	0.300
63.500	114.697	80.001	19.994	103.810	19.987	3.314	0.280
64.000	114.829	80.000	19.994	103.810	19.989	3.130	0.275
64.500	114.967	80.002	19.994	103.809	19.987	3.266	0.270
65.000	115.118	80.001	19.994	103.810	19.987	3.276	0.280
65.501	115.277	80.001	19.994	103.810	19.989	3.116	0.299
66.001	115.393	80.002	19.994	103.810	19.986	3.367	0.292
66.501	115.551	80.001	19.994	103.810	19.985	3.407	0.275
67.001	115.703	80.001	19.994	103.810	19.985	3.458	0.292
67.501	115.853	80.001	19.995	103.810	19.984	3.490	0.306
68.001	116.004	80.002	19.994	103.810	19.984	3.494	0.302
68.500	116.168	80.003	19.994	103.810	19.983	3.605	0.308
69.000	116.321	80.002	19.993	103.810	19.985	3.431	0.316
69.500	116.440	80.002	19.994	103.814	19.985	3.443	0.294
70.000	116.594	80.004	19.993	103.814	19.984	3.486	0.272
70.500	116.765	80.004	19.994	103.814	19.986	3.393	0.299
71.000	116.931	80.004	19.994	103.814	19.986	3.342	0.331
71.500	117.113	80.005	19.993	103.813	19.985	3.419	0.343
72.000	117.284	80.004	19.994	103.809	19.986	3.350	0.351
72.500	117.445	80.004	19.994	103.808	19.983	3.596	0.343
73.000	117.624	80.003	19.994	103.808	19.981	3.720	0.336
73.500	117.778	80.003	19.993	103.808	19.983	3.592	0.336
74.000	117.960	80.004	19.994	103.807	19.983	3.596	0.334
74.500	118.121	80.004	19.993	103.809	19.983	3.600	0.340
75.000	118.298	80.003	19.995	103.809	19.983	3.546	0.340
75.500	118.430	80.004	19.994	103.811	19.980	3.805	0.323
76.000	118.629	80.002	19.995	103.813	19.982	3.633	0.320
76.500	118.792	80.004	19.995	103.813	19.982	3.623	0.347
77.000	118.979	80.002	19.995	103.811	19.981	3.750	0.356
77.500	119.122	80.001	19.994	103.811	19.982	3.667	0.340
78.000	119.288	80.003	19.997	103.810	19.984	3.509	0.320
78.501	119.451	80.003	19.997	103.816	19.983	3.550	0.319
79.001	119.622	80.002	19.997	103.821	19.981	3.685	0.331
79.500	119.797	80.003	19.995	103.823	19.980	3.794	0.340
80.000	119.971	80.001	19.996	103.827	19.978	3.946	0.347
80.500	120.136	80.002	19.995	103.830	19.979	3.877	0.344
81.000	120.312	80.001	19.996	103.825	19.978	3.966	0.340
81.500	120.458	80.001	19.995	103.825	19.978	3.938	0.332
82.000	120.663	80.001	19.995	103.831	19.979	3.857	0.336
82.500	120.813	80.001	19.995	103.833	19.978	3.936	0.353
83.000	121.050	80.002	19.994	103.838	19.975	4.134	0.371
83.500	121.241	80.001	19.994	103.843	19.977	4.025	0.408
84.000	121.399	80.003	19.994	103.845	19.976	4.102	0.389
84.500	121.603	80.001	19.995	103.845	19.977	4.033	0.356
85.000	121.768	80.003	19.995	103.846	19.977	4.021	0.366
85.500	121.983	80.002	19.994	103.845	19.976	4.059	0.375
86.000	122.121	80.002	19.995	103.844	19.978	3.950	0.366
86.500	122.302	80.001	19.995	103.840	19.974	4.189	0.336
87.000	122.544	80.002	19.994	103.838	19.974	4.209	0.371
87.500	122.728	80.001	19.995	103.837	19.976	4.057	0.424
88.000	122.945	80.001	19.995	103.838	19.979	3.897	0.413
88.500	123.124	80.002	19.995	103.840	19.976	4.104	0.398
89.000	123.289	80.001	19.995	103.845	19.977	4.023	0.370
89.500	123.497	80.001	19.995	103.847	19.977	3.990	0.359
90.000	123.692	80.001	19.994	103.848	19.977	3.990	0.388
90.500	123.881	80.000	19.995	103.848	19.976	4.053	0.394
91.000	124.094	80.003	19.994	103.847	19.979	3.885	0.393
91.500	124.269	80.002	19.995	103.847	19.977	3.982	0.395
92.000	124.465	80.000	19.996	103.847	19.978	3.954	0.379
92.501	124.634	80.002	19.994	103.848	19.978	3.903	0.368
93.001	124.842	80.000	19.995	103.849	19.979	3.889	0.371
93.500	125.018	80.003	19.994	103.851	19.979	3.895	0.380
94.000	125.267	80.000	19.994	103.851	19.978	3.930	0.405
94.500	125.435	80.001	19.995	103.851	19.978	3.946	0.421
95.000	125.648	80.001	19.994	103.850	19.979	3.847	0.400
95.500	125.818	80.001	19.994	103.850	19.980	3.788	0.382
96.000	126.038	80.002	19.995	103.848	19.977	4.011	0.386
96.500	126.208	80.003	19.993	103.847	19.978	3.946	0.390
97.000	126.435	80.001	19.995	103.848	19.978	3.950	0.393
97.500	126.625	80.002	19.995	103.849	19.975	4.162	0.407
98.000	126.845	80.001	19.995	103.849	19.979	3.869	0.414
98.500	127.014	80.001	19.995	103.850	19.981	3.754	0.399
99.000	127.267	80.002	19.995	103.851	19.978	3.968	0.405
99.500	127.474	80.002	19.995	103.851	19.980	3.808	0.442
100.000	127.657	80.002	19.995	103.850	19.979	3.869	0.425
100.500	127.874	80.002	19.994	103.850	19.980	3.792	0.395
101.000	128.104	80.002	19.994	103.850	19.978	3.924	0.424
101.500	128.295	80.001	19.995	103.850	19.980	3.792	0.434
102.000	128.542	80.002	19.994	103.850	19.979	3.851	0.429
102.500	128.749	80.003	19.994	103.850	19.981	3.754	0.446
103.000	128.931	80.001	19.995	103.851	19.977	3.978	0.421
103.500	129.163	80.001	19.995	103.850	19.977	4.037	0.402
104.000	129.408	80.002	19.995	103.850	19.982	3.667	0.446
104.500	129.615	80.002	19.996	103.850	19.977	3.972	0.464
105.000	129.858	80.001	19.995	103.850	19.979	3.859	0.451
105.500	130.013	80.002	19.995	103.849	19.977	4.021	0.424
106.000	130.263	80.000	19.996	103.849	19.975	4.120	0.402
106.500	130.492	80.000	19.994	103.849	19.978	3.950	0.441
107.000	130.657	80.000	19.996	103.846	19.979	3.895	0.436
107.500	130.893	80.001	19.995	103.842	19.979	3.853	0.398
108.000	131.152	80.002	19.994	103.842	19.976	4.055	0.448
108.500	131.365	80.001	19.995	103.842	19.978	3.908	0.483
109.000	131.548	80.001	19.995	103.842	19.978	3.950	0.434
109.500	131.782	80.001	19.996	103.845	19.979	3.851	0.406
110.001	131.998	80.001	19.997	103.848	19.974	4.221	0.434
110.501	132.229	80.001	19.996	103.849	19.980	3.790	0.449
111.000	132.444	80.000	19.996	103.848	19.980	3.756	0.446
111.500	132.648	79.999	19.996	103.849	19.978	3.903	0.433
112.000	132.889	80.001	19.995	103.849	19.976	4.091	0.432
112.500	133.108	80.001	19.996	103.850	19.977	3.986	0.453
113.000	133.347	80.001	19.994	103.850	19.982	3.683	0.459
113.500	133.544	80.001	19.995	103.850	19.980	3.762	0.447
114.000	133.827	80.002	19.995	103.850	19.977	4.021	0.458
114.500	134.025	79.999	19.995	103.850	19.980	3.762	0.480
115.000	134.259	80.000	19.995	103.848	19.980	3.804	0.456
115.500	134.475	80.001	19.995	103.848	19.977	4.015	0.441
116.000	134.697	79.998	19.995	103.847	19.974	4.225	0.444
116.500	134.913	80.000	19.995	103.847	19.976	4.108	0.438
117.000	135.106	80.001	19.995	103.847	19.976	4.049	0.423
117.500	135.368	80.002	19.995	103.850	19.977	4.021	0.432
118.001	135.575	80.001	19.995	103.850	19.977	4.031	0.462
118.501	135.804	80.000	19.995	103.850	19.979	3.887	0.453
119.001	136.019	80.000	19.995	103.848	19.976	4.100	0.440
119.501	136.291	80.000	19.995	103.847	19.981	3.732	0.465
120.000	136.514	80.000	19.994	103.847	19.976	4.110	0.491
120.500	136.740	80.001	19.994	103.847	19.978	3.952	0.472
121.000	136.975	80.001	19.995	103.848	19.976	4.096	0.455
121.500	137.213	80.000	19.994	103.850	19.974	4.205	0.467
122.000	137.468	80.002	19.994	103.851	19.976	4.092	0.483
122.500	137.676	80.002	19.994	103.852	19.976	4.082	0.478
123.000	137.899	80.001	19.994	103.852	19.980	3.791	0.447
123.500	138.164	80.002	19.995	103.852	19.974	4.213	0.460
124.000	138.367	80.000	19.994	103.851	19.978	3.943	0.478
124.500	138.596	80.001	19.995	103.850	19.975	4.181	0.450
125.000	138.835	80.001	19.995	103.850	19.977	4.013	0.450
125.500	139.065	80.003	19.995	103.849	19.976	4.045	0.469
126.000	139.286	80.001	19.995	103.848	19.974	4.183	0.460
126.500	139.520	80.005	19.993	103.848	19.979	3.888	0.453
127.000	139.749	80.003	19.994	103.848	19.977	4.027	0.460
127.500	139.965	80.001	19.995	103.847	19.979	3.867	0.454
128.000	140.254	80.003	19.995	103.846	19.975	4.164	0.474
128.500	140.444	80.002	19.995	103.846	19.976	4.075	0.492
129.000	140.657	80.003	19.994	103.847	19.977	3.976	0.441
129.500	140.919	80.002	19.995	103.846	19.974	4.205	0.439
130.000	141.117	80.003	19.995	103.846	19.977	3.993	0.467
130.500	141.383	80.003	19.995	103.847	19.977	4.031	0.462
131.000	141.644	80.002	19.995	103.845	19.970	4.470	0.495
131.500	141.834	80.002	19.994	103.842	19.975	4.157	0.489
132.000	142.085	80.001	19.995	103.839	19.977	4.001	0.446
132.500	142.337	80.001	19.995	103.839	19.979	3.886	0.472
133.000	142.577	80.001	19.994	103.838	19.976	4.041	0.498
133.500	142.803	80.001	19.996	103.838	19.979	3.886	0.479
134.000	143.057	80.001	19.997	103.833	19.979	3.889	0.473
134.500	143.302	80.001	19.996	103.831	19.975	4.136	0.490
135.000	143.495	80.001	19.996	103.830	19.975	4.156	0.468
135.500	143.751	80.001	19.996	103.831	19.978	3.936	0.443
136.000	143.994	80.001	19.995	103.833	19.977	3.979	0.474
136.500	144.251	80.001	19.996	103.839	19.979	3.865	0.500
137.000	144.497	80.001	19.995	103.843	19.979	3.888	0.502
137.500	144.736	79.999	19.995	103.843	19.977	4.011	0.494
138.000	144.980	80.000	19.998	103.844	19.980	3.773	0.484
138.500	145.221	80.001	19.997	103.844	19.979	3.843	0.484
139.000	145.444	80.002	19.997	103.845	19.979	3.853	0.475
139.500	145.702	80.001	19.998	103.846	19.978	3.956	0.473
140.000	145.964	80.000	19.998	103.844	19.981	3.748	0.501
140.500	146.194	80.002	19.997	103.843	19.980	3.764	0.506
141.000	146.448	80.002	19.997	103.843	19.977	3.999	0.487
141.500	146.677	80.001	19.996	103.842	19.981	3.732	0.483
142.000	146.894	80.001	19.997	103.840	19.978	3.965	0.464
142.500	147.122	80.002	19.995	103.839	19.977	4.003	0.445
143.000	147.395	80.002	19.995	103.839	19.980	3.771	0.473
143.500	147.659	80.003	19.995	103.838	19.975	4.151	0.520
144.000	147.881	80.002	19.995	103.838	19.980	3.773	0.512
144.500	148.099	80.001	19.994	103.841	19.980	3.787	0.463
145.000	148.355	80.003	19.994	103.845	19.978	3.964	0.456
145.500	148.601	80.003	19.994	103.847	19.981	3.722	0.487
146.000	148.849	80.004	19.994	103.846	19.981	3.732	0.498
146.500	149.099	80.003	19.994	103.844	19.981	3.740	0.496
147.000	149.352	80.003	19.994	103.841	19.979	3.884	0.501
147.500	149.610	80.003	19.995	103.839	19.977	3.971	0.507
148.000	149.836	80.002	19.994	103.837	19.977	4.012	0.498
148.500	150.110	80.003	19.994	103.836	19.978	3.937	0.492
149.000	150.354	80.004	19.995	103.833	19.980	3.820	0.509
149.500	150.587	80.003	19.994	103.835	19.978	3.917	0.498
150.000	150.839	80.003	19.994	103.837	19.981	3.694	0.481
150.500	151.092	80.004	19.994	103.837	19.977	3.969	0.495
151.000	151.314	80.004	19.994	103.840	19.975	4.116	0.490
151.500	151.534	80.004	19.995	103.842	19.978	3.906	0.459
152.000	151.826	80.003	19.995	103.840	19.978	3.920	0.477
152.500	152.039	80.004	19.994	103.839	19.976	4.074	0.508
153.000	152.285	80.004	19.994	103.836	19.976	4.062	0.482
153.500	152.557	80.006	19.993	103.830	19.979	3.886	0.489
154.000	152.789	80.004	19.995	103.832	19.976	4.070	0.511
154.500	153.059	80.005	19.995	103.832	19.979	3.859	0.503
155.000	153.303	80.006	19.994	103.832	19.978	3.924	0.508
155.500	153.562	80.003	19.994	103.835	19.978	3.966	0.509
156.000	153.774	80.005	19.994	103.840	19.981	3.750	0.487
156.500	154.009	80.004	19.994	103.841	19.979	3.864	0.459
157.000	154.275	80.002	19.995	103.842	19.982	3.617	0.474
157.500	154.481	80.003	19.995	103.838	19.979	3.830	0.486
158.000	154.726	80.004	19.994	103.833	19.979	3.884	0.462
158.500	155.014	80.003	19.994	103.830	19.977	3.969	0.492
159.000	155.271	80.003	19.995	103.823	19.973	4.260	0.538
159.500	155.497	80.001	19.995	103.819	19.978	3.905	0.514
160.000	155.732	80.001	19.995	103.819	19.975	4.131	0.472
160.500	155.964	80.001	19.994	103.823	19.973	4.264	0.464
161.000	156.180	80.000	19.994	103.826	19.974	4.190	0.458
161.500	156.421	80.000	19.994	103.833	19.976	4.060	0.453
162.000	156.676	80.001	19.996	103.835	19.973	4.273	0.476
162.500	156.916	80.001	19.995	103.838	19.979	3.888	0.495
163.000	157.188	80.002	19.995	103.837	19.976	4.089	0.503
163.500	157.450	80.002	19.995	103.835	19.978	3.949	0.523
164.000	157.700	80.001	19.995	103.836	19.977	4.022	0.523
164.500	157.932	80.001	19.995	103.839	19.976	4.066	0.497
165.000	158.190	80.000	19.994	103.841	19.977	3.983	0.486
165.500	158.418	80.000	19.995	103.845	19.975	4.145	0.488
166.000	158.701	80.001	19.995	103.845	19.975	4.155	0.498
166.500	158.908	80.000	19.996	103.841	19.979	3.892	0.501
167.000	159.168	80.002	19.995	103.837	19.975	4.111	0.479
167.500	159.414	80.002	19.994	103.830	19.976	4.069	0.486
168.000	159.677	80.002	19.995	103.825	19.979	3.866	0.507
168.500	159.907	80.001	19.994	103.821	19.976	4.091	0.501
169.000	160.173	80.001	19.995	103.818	19.976	4.056	0.494
169.500	160.363	80.003	19.995	103.815	19.978	3.917	0.476
170.000	160.674	80.002	19.996	103.820	19.979	3.872	0.479
170.500	160.914	80.002	19.995	103.820	19.977	4.004	0.526
171.000	161.165	79.999	19.994	103.822	19.979	3.832	0.521
171.500	161.389	80.001	19.995	103.824	19.977	4.018	0.483
172.000	161.635	80.002	19.995	103.824	19.976	4.056	0.472
172.500	161.863	80.000	19.995	103.820	19.976	4.083	0.472
